LabVIEW Measurement	
Writer_Version	2
Reader_Version	2
Separator	Tab
Decimal_Separator	.
Multi_Headings	Yes
X_Columns	One
Time_Pref	Absolute
Operator	rsh2268
Date	2024/10/01
Time	17:41:01.0718440999999679569
***End_of_Header***	
	
Channels	2		
Samples	1500	1500	
Date	2024/10/01	2024/10/01	
Time	17:41:01.0718440999999679569	17:41:01.0718440999999679569	
Y_Unit_Label	Volts	Volts	
X_Dimension	Time	Time	
X0	0.0000000000000000E+0	0.0000000000000000E+0	
Delta_X	0.010000	0.010000	
***End_of_Header***			
X_Value	cDAQ2Mod1/ai0	cDAQ2Mod1/ai1	Comment
0.000000	0.001308	0.000593
0.010000	0.002582	-0.000354
0.020000	0.001945	-0.000670
0.030000	0.001626	-0.000986
0.040000	0.002264	-0.000354
0.050000	0.001945	-0.000986
0.060000	0.001945	-0.000354
0.070000	0.002582	-3.854300E-5
0.080000	0.001945	-0.000670
0.090000	0.001626	-3.854300E-5
0.100000	0.001308	-3.854300E-5
0.110000	0.001945	-0.000354
0.120000	0.002264	-3.854300E-5
0.130000	0.001945	-0.000354
0.140000	0.001626	-3.854300E-5
0.150000	0.001626	-3.854300E-5
0.160000	0.002264	-0.000354
0.170000	0.001945	-3.854300E-5
0.180000	0.001945	-0.000670
0.190000	0.001945	-0.000354
0.200000	0.001308	-3.854300E-5
0.210000	0.001308	-0.000354
0.220000	0.001308	-3.854300E-5
0.230000	0.001945	-0.000670
0.240000	0.001945	-0.000670
0.250000	0.001945	-3.854300E-5
0.260000	0.001945	-0.000354
0.270000	0.001945	-3.854300E-5
0.280000	0.001626	-0.000354
0.290000	0.001945	-0.000354
0.300000	0.001945	-0.000354
0.310000	0.001308	-0.000670
0.320000	0.001945	-0.000354
0.330000	0.001626	-0.000670
0.340000	0.001945	-0.000354
0.350000	0.001945	-3.854300E-5
0.360000	0.001945	-0.000354
0.370000	0.001626	-3.854300E-5
0.380000	0.001626	-0.000670
0.390000	0.001626	-0.000670
0.400000	0.001626	-0.000354
0.410000	0.001945	-0.000354
0.420000	0.002264	0.000277
0.430000	0.000989	-0.000354
0.440000	0.002264	-3.854300E-5
0.450000	0.001945	-0.000670
0.460000	0.001626	-0.000670
0.470000	0.001945	-0.000670
0.480000	0.002264	-0.000354
0.490000	0.001945	-3.854300E-5
0.500000	0.001945	-0.000354
0.510000	0.001945	-3.854300E-5
0.520000	0.001626	-3.854300E-5
0.530000	0.002264	-0.000354
0.540000	0.001945	0.000277
0.550000	0.001945	-0.000670
0.560000	0.001626	-0.000670
0.570000	0.001626	-3.854300E-5
0.580000	0.001626	-0.000354
0.590000	0.001945	-0.000670
0.600000	0.001626	-0.000354
0.610000	0.002264	-3.854300E-5
0.620000	0.001626	-0.000354
0.630000	0.001626	-0.000354
0.640000	0.001626	-0.000354
0.650000	0.001945	-0.000354
0.660000	0.001945	-3.854300E-5
0.670000	0.001626	-0.000354
0.680000	0.001308	-0.000354
0.690000	0.002264	-3.854300E-5
0.700000	0.001945	-0.000354
0.710000	0.001945	-3.854300E-5
0.720000	0.002264	-3.854300E-5
0.730000	0.001945	-0.000354
0.740000	0.001945	-0.000354
0.750000	0.001945	-0.000670
0.760000	0.001945	-0.000354
0.770000	0.002264	-0.000354
0.780000	0.002582	-3.854300E-5
0.790000	0.002264	-0.000354
0.800000	0.001945	-3.854300E-5
0.810000	0.001945	-3.854300E-5
0.820000	0.002582	-0.000354
0.830000	0.002264	-0.000354
0.840000	0.001626	0.000277
0.850000	0.001945	-0.000354
0.860000	0.001945	-0.000354
0.870000	0.002264	-3.854300E-5
0.880000	0.001945	-0.000354
0.890000	0.001945	-3.854300E-5
0.900000	0.001626	-0.000354
0.910000	0.001945	-0.000670
0.920000	0.002582	-0.000354
0.930000	0.001945	-0.000670
0.940000	0.001945	-0.000354
0.950000	0.002264	-0.000670
0.960000	0.001945	-3.854300E-5
0.970000	0.001945	-0.000354
0.980000	0.002582	-0.000670
0.990000	0.001945	-3.854300E-5
1.000000	0.001626	-0.000354
1.010000	0.001626	-3.854300E-5
1.020000	0.001945	-0.000670
1.030000	0.001945	-3.854300E-5
1.040000	0.002264	0.000277
1.050000	0.001626	-3.854300E-5
1.060000	0.001945	-0.000354
1.070000	0.001626	-0.000354
1.080000	0.001308	-0.000670
1.090000	0.001945	-0.000670
1.100000	0.001626	-0.000670
1.110000	0.002264	0.000277
1.120000	0.001945	-0.000354
1.130000	0.001308	0.000277
1.140000	0.002264	-3.854300E-5
1.150000	0.001945	0.000277
1.160000	0.001945	-3.854300E-5
1.170000	0.001945	-0.000354
1.180000	0.001626	-0.000354
1.190000	0.002264	-0.000354
1.200000	0.001945	-3.854300E-5
1.210000	0.002264	0.000277
1.220000	0.001945	-0.000670
1.230000	0.001626	-0.000354
1.240000	0.001945	0.000277
1.250000	0.002264	-3.854300E-5
1.260000	0.002264	-3.854300E-5
1.270000	0.002264	0.000277
1.280000	0.001945	-3.854300E-5
1.290000	0.001945	-0.000354
1.300000	0.001626	-0.000354
1.310000	0.001945	-0.000354
1.320000	0.001945	-3.854300E-5
1.330000	0.001945	-3.854300E-5
1.340000	0.002264	-3.854300E-5
1.350000	0.001945	-3.854300E-5
1.360000	0.002264	-3.854300E-5
1.370000	0.002264	0.000277
1.380000	0.001945	-0.000354
1.390000	0.002264	-0.000354
1.400000	0.002264	-0.000354
1.410000	0.001945	-0.000354
1.420000	0.001945	-3.854300E-5
1.430000	0.001626	-0.000354
1.440000	0.001626	-3.854300E-5
1.450000	0.001945	-0.000354
1.460000	0.001945	-3.854300E-5
1.470000	0.001945	-3.854300E-5
1.480000	0.001945	-0.000354
1.490000	0.002582	-0.000354
1.500000	0.002264	-0.000670
1.510000	0.001945	-3.854300E-5
1.520000	0.001945	-3.854300E-5
1.530000	0.001945	-0.000354
1.540000	0.001308	-0.000354
1.550000	0.001626	-0.000354
1.560000	0.001945	-3.854300E-5
1.570000	0.001626	-0.000354
1.580000	0.002582	-3.854300E-5
1.590000	0.001945	-0.000354
1.600000	0.001945	-0.000354
1.610000	0.001945	-0.000354
1.620000	0.001945	-0.000354
1.630000	0.001945	-0.000670
1.640000	0.001308	0.000277
1.650000	0.001945	-3.854300E-5
1.660000	0.001945	-0.000670
1.670000	0.001945	-0.000354
1.680000	0.001945	-0.000354
1.690000	0.002264	-3.854300E-5
1.700000	0.001945	-0.000986
1.710000	0.001626	-0.000354
1.720000	0.001308	-0.000670
1.730000	0.001626	-0.000354
1.740000	0.002264	-3.854300E-5
1.750000	0.001945	-0.000354
1.760000	0.001945	-0.000354
1.770000	0.001308	-0.000354
1.780000	0.001626	-0.000354
1.790000	0.002264	-0.000354
1.800000	0.001626	-0.000354
1.810000	0.001626	-0.000354
1.820000	0.001626	-0.000354
1.830000	0.001626	-0.000670
1.840000	0.001945	-3.854300E-5
1.850000	0.002582	-3.854300E-5
1.860000	0.002264	-0.000670
1.870000	0.001945	-0.000354
1.880000	0.001945	-0.000354
1.890000	0.002264	-0.000354
1.900000	0.001945	-0.000354
1.910000	0.001945	-0.000354
1.920000	0.002264	-0.000670
1.930000	0.001626	-0.000354
1.940000	0.001626	-3.854300E-5
1.950000	0.002582	-0.000354
1.960000	0.001626	-0.000354
1.970000	0.001945	-0.000354
1.980000	0.001308	-0.000354
1.990000	0.001626	-3.854300E-5
2.000000	0.001626	-0.000670
2.010000	0.002264	-3.854300E-5
2.020000	0.001945	-3.854300E-5
2.030000	0.001945	-0.000354
2.040000	0.001945	-0.000670
2.050000	0.002264	-3.854300E-5
2.060000	0.001945	-0.000354
2.070000	0.001945	-0.000354
2.080000	0.001626	-0.000354
2.090000	0.001626	-3.854300E-5
2.100000	0.001626	-3.854300E-5
2.110000	0.001626	-0.000670
2.120000	0.002264	0.000277
2.130000	0.002582	-0.000354
2.140000	0.001945	-0.000354
2.150000	0.001945	-3.854300E-5
2.160000	0.001945	-3.854300E-5
2.170000	0.001945	0.000593
2.180000	0.001945	-0.000354
2.190000	0.001626	-3.854300E-5
2.200000	0.000989	-0.000354
2.210000	0.001945	-0.000670
2.220000	0.001945	-0.000670
2.230000	0.001626	-3.854300E-5
2.240000	0.002264	-0.000354
2.250000	0.001945	-0.000354
2.260000	0.001626	0.000277
2.270000	0.002264	-0.000354
2.280000	0.001945	-3.854300E-5
2.290000	0.001626	-0.000354
2.300000	0.001945	-0.000354
2.310000	0.001626	-3.854300E-5
2.320000	0.002582	0.000277
2.330000	0.001945	-0.000670
2.340000	0.001308	-0.000354
2.350000	0.001945	-0.000670
2.360000	0.001308	-3.854300E-5
2.370000	0.002582	-0.000670
2.380000	0.001945	-3.854300E-5
2.390000	0.002264	-0.000354
2.400000	0.001945	0.000277
2.410000	0.001945	-3.854300E-5
2.420000	0.001308	-0.000354
2.430000	0.001945	-0.000670
2.440000	0.001945	0.000277
2.450000	0.001945	-0.000670
2.460000	0.002264	-0.000354
2.470000	0.001626	-0.000354
2.480000	0.001945	-0.000670
2.490000	0.001626	-0.000354
2.500000	0.002264	0.000593
2.510000	0.002264	-3.854300E-5
2.520000	0.001945	-3.854300E-5
2.530000	0.001308	-3.854300E-5
2.540000	0.001945	-0.000354
2.550000	0.002582	-0.000670
2.560000	0.002582	-0.000354
2.570000	0.002264	-0.000670
2.580000	0.001945	0.000593
2.590000	0.001945	-0.000354
2.600000	0.001945	-3.854300E-5
2.610000	0.001945	-0.000354
2.620000	0.001945	-0.000354
2.630000	0.001626	-0.000354
2.640000	0.001945	-0.000670
2.650000	0.001945	-3.854300E-5
2.660000	0.001945	-0.000670
2.670000	0.001945	-3.854300E-5
2.680000	0.002582	-0.000354
2.690000	0.001626	-0.000354
2.700000	0.001626	-0.000354
2.710000	0.002264	-3.854300E-5
2.720000	0.002264	-3.854300E-5
2.730000	0.001945	-0.000354
2.740000	0.002582	-3.854300E-5
2.750000	0.001626	-0.000354
2.760000	0.002264	-0.000354
2.770000	0.001945	-0.000354
2.780000	0.001626	0.000277
2.790000	0.002264	-3.854300E-5
2.800000	0.002264	-0.000354
2.810000	0.002264	0.000277
2.820000	0.001945	0.000593
2.830000	0.001945	-0.000670
2.840000	0.002264	-0.000354
2.850000	0.001945	-3.854300E-5
2.860000	0.002264	-0.000354
2.870000	0.002264	-3.854300E-5
2.880000	0.001945	-0.000670
2.890000	0.001945	-0.000670
2.900000	0.001945	-0.000354
2.910000	0.001945	-0.000354
2.920000	0.001626	-3.854300E-5
2.930000	0.001945	-3.854300E-5
2.940000	0.002264	-3.854300E-5
2.950000	0.002264	0.000593
2.960000	0.001945	0.000277
2.970000	0.001945	-0.000354
2.980000	0.001945	-0.000354
2.990000	0.001945	-3.854300E-5
3.000000	0.001945	-0.000354
3.010000	0.002264	-3.854300E-5
3.020000	0.002264	0.000277
3.030000	0.001945	-3.854300E-5
3.040000	0.002901	0.000593
3.050000	0.002582	-3.854300E-5
3.060000	0.002582	0.000593
3.070000	0.001945	0.000593
3.080000	0.002264	-0.000354
3.090000	0.002264	0.000277
3.100000	0.002582	-0.000354
3.110000	0.001626	0.000277
3.120000	0.001945	-3.854300E-5
3.130000	0.001945	-3.854300E-5
3.140000	0.001945	-0.000354
3.150000	0.001945	-0.000354
3.160000	0.001626	-0.000354
3.170000	0.001945	-0.000354
3.180000	0.001945	-3.854300E-5
3.190000	0.001626	-3.854300E-5
3.200000	0.002264	-0.000354
3.210000	0.002264	-0.000354
3.220000	0.002264	-3.854300E-5
3.230000	0.001945	-3.854300E-5
3.240000	0.001945	-0.000354
3.250000	0.002264	0.000909
3.260000	0.002264	-0.000354
3.270000	0.001945	0.000277
3.280000	0.001945	-3.854300E-5
3.290000	0.001945	-0.000354
3.300000	0.001945	-3.854300E-5
3.310000	0.001945	-0.000354
3.320000	0.002264	-0.000354
3.330000	0.002264	-0.000354
3.340000	0.001626	-3.854300E-5
3.350000	0.001945	-0.000354
3.360000	0.001945	-0.000670
3.370000	0.001945	-0.000354
3.380000	0.001626	-0.000354
3.390000	0.001945	-0.000354
3.400000	0.001945	-0.000354
3.410000	0.001626	-0.000670
3.420000	0.002264	-0.000354
3.430000	0.001626	-3.854300E-5
3.440000	0.002582	-0.000354
3.450000	0.001626	-3.854300E-5
3.460000	0.001626	-0.000670
3.470000	0.002264	-0.000354
3.480000	0.001945	-0.000354
3.490000	0.001945	-0.000354
3.500000	0.001945	-3.854300E-5
3.510000	0.002582	-3.854300E-5
3.520000	0.002582	-3.854300E-5
3.530000	0.002582	-3.854300E-5
3.540000	0.001945	-3.854300E-5
3.550000	0.001945	-3.854300E-5
3.560000	0.000989	-0.000354
3.570000	0.002582	0.000277
3.580000	0.002582	-0.000670
3.590000	0.001945	-0.000354
3.600000	0.001945	-0.000354
3.610000	0.001626	-3.854300E-5
3.620000	0.001945	-0.000354
3.630000	0.001626	-0.000354
3.640000	0.002582	-3.854300E-5
3.650000	0.002264	-0.000354
3.660000	0.001945	-0.000354
3.670000	0.001945	-3.854300E-5
3.680000	0.001626	-3.854300E-5
3.690000	0.001945	-0.000670
3.700000	0.001945	-0.000670
3.710000	0.001626	-3.854300E-5
3.720000	0.002264	-3.854300E-5
3.730000	0.002582	-0.000354
3.740000	0.002582	-0.000354
3.750000	0.001308	-0.000670
3.760000	0.000989	-3.854300E-5
3.770000	0.002264	-0.000670
3.780000	0.002582	-0.000670
3.790000	0.001945	-0.000670
3.800000	0.002264	-0.000670
3.810000	0.001626	-0.000354
3.820000	0.001626	-3.854300E-5
3.830000	0.002264	-0.000354
3.840000	0.002582	-0.000354
3.850000	0.002901	-0.000354
3.860000	0.001945	-0.000354
3.870000	0.001626	-0.000354
3.880000	0.003538	-3.854300E-5
3.890000	0.002582	-0.000354
3.900000	0.001945	0.000277
3.910000	0.001945	-0.000354
3.920000	0.002582	-0.000670
3.930000	0.002264	-0.000670
3.940000	0.002582	-0.001302
3.950000	0.003219	-0.000986
3.960000	0.001945	-0.000986
3.970000	0.004175	-0.001302
3.980000	0.003857	-0.001618
3.990000	0.001626	-0.001302
4.000000	0.003538	-0.001618
4.010000	0.002582	-0.000986
4.020000	0.004175	-0.001302
4.030000	0.003219	-0.001302
4.040000	0.005131	-0.001934
4.050000	0.004813	-0.001618
4.060000	0.001945	-0.001302
4.070000	0.004813	-0.001302
4.080000	0.006725	-0.001934
4.090000	0.004813	-0.002250
4.100000	0.003219	-0.002566
4.110000	0.004175	-0.002881
4.120000	0.007043	-0.002250
4.130000	0.005450	-0.002566
4.140000	0.004494	-0.003197
4.150000	0.004813	-0.002881
4.160000	0.007362	-0.003197
4.170000	0.007680	-0.002881
4.180000	0.007680	-0.003197
4.190000	0.007362	-0.003197
4.200000	0.009274	-0.002881
4.210000	0.006087	-0.003829
4.220000	0.008318	-0.003829
4.230000	0.007043	-0.004145
4.240000	0.007680	-0.004777
4.250000	0.008636	-0.006040
4.260000	0.010230	-0.006672
4.270000	0.013097	-0.005724
4.280000	0.013416	-0.006988
4.290000	0.014372	-0.006988
4.300000	0.012460	-0.008567
4.310000	0.015009	-0.008567
4.320000	0.015009	-0.008251
4.330000	0.015328	-0.008883
4.340000	0.012460	-0.009199
4.350000	0.014691	-0.009199
4.360000	0.018514	-0.010778
4.370000	0.020426	-0.010778
4.380000	0.018514	-0.011094
4.390000	0.019789	-0.012358
4.400000	0.022019	-0.012990
4.410000	0.022019	-0.013621
4.420000	0.023613	-0.014253
4.430000	0.022657	-0.014885
4.440000	0.022975	-0.016148
4.450000	0.022975	-0.016780
4.460000	0.022975	-0.017728
4.470000	0.028711	-0.017728
4.480000	0.025843	-0.018676
4.490000	0.027118	-0.019623
4.500000	0.026162	-0.020255
4.510000	0.026480	-0.021518
4.520000	0.031579	-0.021834
4.530000	0.026480	-0.023098
4.540000	0.033809	-0.024677
4.550000	0.035721	-0.025309
4.560000	0.032535	-0.026573
4.570000	0.033809	-0.027204
4.580000	0.030623	-0.027520
4.590000	0.036040	-0.028152
4.600000	0.033809	-0.030363
4.610000	0.032853	-0.031311
4.620000	0.035084	-0.032258
4.630000	0.039226	-0.033206
4.640000	0.040182	-0.034154
4.650000	0.035402	-0.036049
4.660000	0.044006	-0.036681
4.670000	0.035402	-0.038260
4.680000	0.040819	-0.039524
4.690000	0.040501	-0.040155
4.700000	0.035084	-0.042998
4.710000	0.040501	-0.043314
4.720000	0.041457	-0.044894
4.730000	0.045280	-0.046473
4.740000	0.044962	-0.047737
4.750000	0.041138	-0.049000
4.760000	0.038270	-0.050264
4.770000	0.046874	-0.052475
4.780000	0.042731	-0.052791
4.790000	0.046555	-0.053422
4.800000	0.046555	-0.055318
4.810000	0.046555	-0.055949
4.820000	0.046874	-0.057213
4.830000	0.047511	-0.057529
4.840000	0.047192	-0.059424
4.850000	0.046874	-0.060372
4.860000	0.048148	-0.061319
4.870000	0.048148	-0.061635
4.880000	0.046555	-0.062267
4.890000	0.046555	-0.063531
4.900000	0.044962	-0.064794
4.910000	0.055477	-0.064162
4.920000	0.051972	-0.065426
4.930000	0.050060	-0.064794
4.940000	0.054202	-0.066374
4.950000	0.049104	-0.066689
4.960000	0.053246	-0.067005
4.970000	0.051335	-0.067953
4.980000	0.051972	-0.067953
4.990000	0.056752	-0.067953
5.000000	0.051972	-0.068269
5.010000	0.052609	-0.069216
5.020000	0.055158	-0.069216
5.030000	0.054202	-0.069532
5.040000	0.057389	-0.069848
5.050000	0.047830	-0.070480
5.060000	0.052291	-0.070480
5.070000	0.053884	-0.070480
5.080000	0.057389	-0.070480
5.090000	0.053565	-0.070796
5.100000	0.054521	-0.071428
5.110000	0.055477	-0.072059
5.120000	0.051335	-0.071112
5.130000	0.057707	-0.071744
5.140000	0.052928	-0.072059
5.150000	0.052928	-0.072059
5.160000	0.055796	-0.071744
5.170000	0.053565	-0.072691
5.180000	0.053884	-0.073007
5.190000	0.055796	-0.072375
5.200000	0.061213	-0.072691
5.210000	0.051972	-0.073007
5.220000	0.055796	-0.072691
5.230000	0.055796	-0.073639
5.240000	0.053884	-0.073007
5.250000	0.058663	-0.072691
5.260000	0.056433	-0.073007
5.270000	0.056433	-0.073007
5.280000	0.056114	-0.073323
5.290000	0.061850	-0.073007
5.300000	0.058345	-0.072691
5.310000	0.056752	-0.073639
5.320000	0.055477	-0.072375
5.330000	0.059301	-0.073323
5.340000	0.060257	-0.073323
5.350000	0.058026	-0.073323
5.360000	0.060257	-0.073639
5.370000	0.055796	-0.073323
5.380000	0.054521	-0.073639
5.390000	0.058663	-0.073007
5.400000	0.058663	-0.073955
5.410000	0.061850	-0.073323
5.420000	0.062487	-0.073323
5.430000	0.057389	-0.074271
5.440000	0.060257	-0.073639
5.450000	0.060257	-0.074271
5.460000	0.066629	-0.073639
5.470000	0.060575	-0.072691
5.480000	0.056433	-0.073007
5.490000	0.057070	-0.073323
5.500000	0.052291	-0.073323
5.510000	0.059938	-0.073323
5.520000	0.056114	-0.073323
5.530000	0.058663	-0.073639
5.540000	0.058982	-0.073639
5.550000	0.054840	-0.073639
5.560000	0.058345	-0.073955
5.570000	0.060575	-0.073007
5.580000	0.059301	-0.073323
5.590000	0.060575	-0.073323
5.600000	0.060894	-0.073323
5.610000	0.058663	-0.073639
5.620000	0.061531	-0.073323
5.630000	0.055158	-0.072691
5.640000	0.060257	-0.073639
5.650000	0.059301	-0.073955
5.660000	0.058026	-0.073323
5.670000	0.057389	-0.073323
5.680000	0.058982	-0.073323
5.690000	0.058345	-0.073323
5.700000	0.064718	-0.073323
5.710000	0.059301	-0.073639
5.720000	0.059619	-0.073639
5.730000	0.059938	-0.073955
5.740000	0.057070	-0.073639
5.750000	0.059301	-0.073323
5.760000	0.055796	-0.073955
5.770000	0.058026	-0.073639
5.780000	0.058663	-0.073323
5.790000	0.059619	-0.073007
5.800000	0.059301	-0.073007
5.810000	0.055477	-0.073639
5.820000	0.057707	-0.073639
5.830000	0.059301	-0.073639
5.840000	0.059619	-0.073323
5.850000	0.060575	-0.073323
5.860000	0.055796	-0.073007
5.870000	0.058663	-0.073955
5.880000	0.058345	-0.074271
5.890000	0.057389	-0.073007
5.900000	0.058026	-0.073639
5.910000	0.059301	-0.073639
5.920000	0.060257	-0.073007
5.930000	0.059938	-0.073007
5.940000	0.065674	-0.073323
5.950000	0.060257	-0.073323
5.960000	0.061531	-0.073323
5.970000	0.053565	-0.072691
5.980000	0.056433	-0.073323
5.990000	0.057070	-0.073639
6.000000	0.054840	-0.073639
6.010000	0.053565	-0.073955
6.020000	0.060894	-0.073639
6.030000	0.060894	-0.073007
6.040000	0.058982	-0.073639
6.050000	0.058663	-0.072691
6.060000	0.064080	-0.073007
6.070000	0.060575	-0.073007
6.080000	0.056752	-0.072691
6.090000	0.058663	-0.072375
6.100000	0.057070	-0.073323
6.110000	0.061531	-0.073323
6.120000	0.065036	-0.072375
6.130000	0.056752	-0.073007
6.140000	0.062168	-0.073007
6.150000	0.058982	-0.073323
6.160000	0.058026	-0.073323
6.170000	0.057707	-0.073323
6.180000	0.058982	-0.073323
6.190000	0.060257	-0.072691
6.200000	0.058026	-0.073323
6.210000	0.063124	-0.073007
6.220000	0.057389	-0.073007
6.230000	0.058345	-0.073323
6.240000	0.059619	-0.072375
6.250000	0.060894	-0.072691
6.260000	0.056114	-0.072375
6.270000	0.059619	-0.072691
6.280000	0.055796	-0.073955
6.290000	0.056752	-0.073007
6.300000	0.059619	-0.073007
6.310000	0.060894	-0.073007
6.320000	0.056114	-0.073323
6.330000	0.062168	-0.073639
6.340000	0.057070	-0.073007
6.350000	0.056752	-0.073639
6.360000	0.058026	-0.072691
6.370000	0.064399	-0.072375
6.380000	0.054521	-0.073639
6.390000	0.062487	-0.072375
6.400000	0.061531	-0.072375
6.410000	0.058663	-0.073007
6.420000	0.059619	-0.072691
6.430000	0.059619	-0.072375
6.440000	0.057707	-0.073323
6.450000	0.062806	-0.073007
6.460000	0.061850	-0.073323
6.470000	0.062168	-0.073007
6.480000	0.061850	-0.073323
6.490000	0.060257	-0.073323
6.500000	0.062168	-0.073639
6.510000	0.052609	-0.073323
6.520000	0.062806	-0.072691
6.530000	0.057707	-0.072691
6.540000	0.057070	-0.073007
6.550000	0.058026	-0.072691
6.560000	0.058026	-0.073007
6.570000	0.061850	-0.073007
6.580000	0.063124	-0.072691
6.590000	0.057070	-0.072375
6.600000	0.057707	-0.073639
6.610000	0.056752	-0.073323
6.620000	0.059301	-0.073007
6.630000	0.060257	-0.072691
6.640000	0.061531	-0.073007
6.650000	0.059938	-0.073639
6.660000	0.060257	-0.072691
6.670000	0.060894	-0.072691
6.680000	0.060575	-0.073639
6.690000	0.057707	-0.073007
6.700000	0.062168	-0.072691
6.710000	0.061531	-0.073007
6.720000	0.053246	-0.073007
6.730000	0.060575	-0.073323
6.740000	0.062487	-0.073007
6.750000	0.059938	-0.073639
6.760000	0.061213	-0.073007
6.770000	0.055158	-0.073007
6.780000	0.059938	-0.073639
6.790000	0.062168	-0.073007
6.800000	0.058345	-0.073323
6.810000	0.059938	-0.072691
6.820000	0.058345	-0.073007
