LabVIEW Measurement	
Writer_Version	2
Reader_Version	2
Separator	Tab
Decimal_Separator	.
Multi_Headings	Yes
X_Columns	One
Time_Pref	Absolute
Operator	rsh2268
Date	2024/10/01
Time	16:54:55.5783458999997056932
***End_of_Header***	
	
Channels	2		
Samples	1300	1300	
Date	2024/10/01	2024/10/01	
Time	16:54:55.5783458999997056932	16:54:55.5783458999997056932	
Y_Unit_Label	Volts	Volts	
X_Dimension	Time	Time	
X0	0.0000000000000000E+0	0.0000000000000000E+0	
Delta_X	0.010000	0.010000	
***End_of_Header***			
X_Value	cDAQ2Mod1/ai0	cDAQ2Mod1/ai1	Comment
0.000000	0.003538	-0.001302
0.010000	0.001945	-3.854300E-5
0.020000	0.002264	-3.854300E-5
0.030000	0.002582	0.000593
0.040000	0.001945	-0.001302
0.050000	0.002264	-0.000354
0.060000	0.002264	-3.854300E-5
0.070000	0.002264	-3.854300E-5
0.080000	0.001626	-0.000354
0.090000	0.001945	-0.000354
0.100000	0.001945	0.000277
0.110000	0.001945	0.000593
0.120000	0.001945	-0.000354
0.130000	0.002264	-0.000354
0.140000	0.002264	-3.854300E-5
0.150000	0.002582	0.000277
0.160000	0.002264	-0.000354
0.170000	0.002264	-3.854300E-5
0.180000	0.002582	0.000277
0.190000	0.001626	-3.854300E-5
0.200000	0.001945	-3.854300E-5
0.210000	0.002264	-0.000354
0.220000	0.002264	0.000277
0.230000	0.001626	0.000593
0.240000	0.002264	-0.000354
0.250000	0.001945	-3.854300E-5
0.260000	0.001626	-0.000354
0.270000	0.001945	0.000277
0.280000	0.002264	-0.000354
0.290000	0.001945	0.000277
0.300000	0.001308	0.000277
0.310000	0.002264	-0.000354
0.320000	0.002264	-3.854300E-5
0.330000	0.001945	-0.000354
0.340000	0.001308	-3.854300E-5
0.350000	0.001945	-3.854300E-5
0.360000	0.002901	-0.000354
0.370000	0.002264	-3.854300E-5
0.380000	0.001945	-0.000354
0.390000	0.001626	-0.000354
0.400000	0.002901	0.000593
0.410000	0.001308	-3.854300E-5
0.420000	0.001945	-0.000670
0.430000	0.002264	-0.000670
0.440000	0.002264	0.000277
0.450000	0.002264	-0.000354
0.460000	0.002264	-0.000354
0.470000	0.002264	-0.000354
0.480000	0.002901	-3.854300E-5
0.490000	0.002264	-0.000354
0.500000	0.001945	-0.000670
0.510000	0.001945	-0.000354
0.520000	0.001945	-0.000354
0.530000	0.001945	-3.854300E-5
0.540000	0.001626	-0.000670
0.550000	0.001626	-0.000670
0.560000	0.001945	-3.854300E-5
0.570000	0.001626	-0.000670
0.580000	0.001626	-0.001302
0.590000	0.001626	0.000277
0.600000	0.002264	-0.000354
0.610000	0.001626	-3.854300E-5
0.620000	0.001626	-3.854300E-5
0.630000	0.002264	-0.000354
0.640000	0.001945	-3.854300E-5
0.650000	0.002264	-0.000354
0.660000	0.001945	-3.854300E-5
0.670000	0.001626	-3.854300E-5
0.680000	0.001308	-3.854300E-5
0.690000	0.001945	0.000277
0.700000	0.001626	-0.000670
0.710000	0.000989	-0.000354
0.720000	0.002264	-0.000670
0.730000	0.001945	-0.000354
0.740000	0.001626	-0.000670
0.750000	0.001626	-0.000670
0.760000	0.001626	0.000277
0.770000	0.002582	-0.000354
0.780000	0.002582	-3.854300E-5
0.790000	0.001308	-0.000670
0.800000	0.001308	-0.000670
0.810000	0.002264	-0.000354
0.820000	0.001945	-0.000354
0.830000	0.001945	-0.000670
0.840000	0.001626	-0.000354
0.850000	0.001945	-0.000354
0.860000	0.001626	-0.000354
0.870000	0.002264	-3.854300E-5
0.880000	0.001308	-0.000354
0.890000	0.001945	-3.854300E-5
0.900000	0.002264	-3.854300E-5
0.910000	0.001308	-0.000354
0.920000	0.001945	-0.000354
0.930000	0.001945	0.000277
0.940000	0.001945	-0.000670
0.950000	0.001945	-0.000354
0.960000	0.002264	0.000277
0.970000	0.002582	0.000593
0.980000	0.001945	-3.854300E-5
0.990000	0.002264	-3.854300E-5
1.000000	0.001945	-0.000670
1.010000	0.001945	-0.000354
1.020000	0.001945	-0.000354
1.030000	0.001945	-0.000354
1.040000	0.002582	-0.000354
1.050000	0.001945	-3.854300E-5
1.060000	0.001945	-3.854300E-5
1.070000	0.001308	-3.854300E-5
1.080000	0.002264	-0.000670
1.090000	0.001945	0.000277
1.100000	0.002582	-3.854300E-5
1.110000	0.002264	-3.854300E-5
1.120000	0.001945	-3.854300E-5
1.130000	0.002264	-0.000354
1.140000	0.001945	-3.854300E-5
1.150000	0.001945	-0.000354
1.160000	0.001945	-0.000670
1.170000	0.001945	-0.000354
1.180000	0.001308	-3.854300E-5
1.190000	0.002264	-0.000670
1.200000	0.002264	-0.000354
1.210000	0.002264	-0.000354
1.220000	0.001945	-0.000354
1.230000	0.002264	-3.854300E-5
1.240000	0.002264	-0.000354
1.250000	0.002264	-3.854300E-5
1.260000	0.001945	-3.854300E-5
1.270000	0.001945	-0.000354
1.280000	0.001945	0.000593
1.290000	0.002264	-0.000354
1.300000	0.002582	-3.854300E-5
1.310000	0.001626	-0.000354
1.320000	0.002264	-3.854300E-5
1.330000	0.001945	-3.854300E-5
1.340000	0.001626	-0.001302
1.350000	0.002264	-0.000354
1.360000	0.002264	-0.000354
1.370000	0.001945	-0.000354
1.380000	0.001945	-3.854300E-5
1.390000	0.001945	-3.854300E-5
1.400000	0.001945	-3.854300E-5
1.410000	0.001945	-0.000354
1.420000	0.002264	-3.854300E-5
1.430000	0.002264	0.000277
1.440000	0.001626	-0.000354
1.450000	0.001945	-0.000670
1.460000	0.002264	0.000277
1.470000	0.001626	0.000277
1.480000	0.001945	-0.000354
1.490000	0.002264	-0.000354
1.500000	0.001945	-3.854300E-5
1.510000	0.002582	-3.854300E-5
1.520000	0.001945	-0.000354
1.530000	0.002264	-0.000986
1.540000	0.001945	-0.000354
1.550000	0.002264	-3.854300E-5
1.560000	0.002264	0.000277
1.570000	0.001945	-3.854300E-5
1.580000	0.002264	0.000277
1.590000	0.001945	-3.854300E-5
1.600000	0.002264	-0.000354
1.610000	0.001945	-0.000670
1.620000	0.001945	0.000277
1.630000	0.002582	0.000277
1.640000	0.001945	-0.000354
1.650000	0.001308	-0.000354
1.660000	0.002582	-0.000354
1.670000	0.002264	-0.000354
1.680000	0.001945	-3.854300E-5
1.690000	0.001626	-0.000354
1.700000	0.002264	-3.854300E-5
1.710000	0.002264	0.000277
1.720000	0.002264	-3.854300E-5
1.730000	0.001945	-3.854300E-5
1.740000	0.002264	-0.000354
1.750000	0.001945	-0.000354
1.760000	0.001626	-3.854300E-5
1.770000	0.001945	-3.854300E-5
1.780000	0.001945	0.000277
1.790000	0.001626	-0.000354
1.800000	0.001626	-3.854300E-5
1.810000	0.001945	-0.000670
1.820000	0.000989	-3.854300E-5
1.830000	0.001945	-0.000354
1.840000	0.001945	-0.000354
1.850000	0.001308	-0.000354
1.860000	0.001945	-3.854300E-5
1.870000	0.001308	-0.000670
1.880000	0.001945	-0.000354
1.890000	0.001626	-0.000354
1.900000	0.002264	0.000277
1.910000	0.001626	-3.854300E-5
1.920000	0.001626	-3.854300E-5
1.930000	0.002264	0.000277
1.940000	0.001626	-0.000354
1.950000	0.001308	-3.854300E-5
1.960000	0.001945	-0.000670
1.970000	0.002264	-0.000354
1.980000	0.001945	-0.000354
1.990000	0.001945	-0.000354
2.000000	0.002582	-0.000354
2.010000	0.001626	-0.000986
2.020000	0.001945	0.000277
2.030000	0.002582	-3.854300E-5
2.040000	0.001308	-3.854300E-5
2.050000	0.001945	-0.000670
2.060000	0.002264	-0.000354
2.070000	0.001945	-0.000670
2.080000	0.001945	-0.000354
2.090000	0.001626	-3.854300E-5
2.100000	0.001626	-0.000354
2.110000	0.001626	-0.000354
2.120000	0.001626	-3.854300E-5
2.130000	0.001626	-0.000670
2.140000	0.001626	-0.001302
2.150000	0.001945	-0.000354
2.160000	0.001308	-0.000670
2.170000	0.001945	-3.854300E-5
2.180000	0.001945	-0.000354
2.190000	0.001626	-0.000354
2.200000	0.001945	-3.854300E-5
2.210000	0.001945	-3.854300E-5
2.220000	0.001945	-0.000354
2.230000	0.001945	-0.000354
2.240000	0.001626	-0.000354
2.250000	0.002264	0.000277
2.260000	0.001945	-0.000354
2.270000	0.001945	-0.000986
2.280000	0.002264	0.000593
2.290000	0.001945	-0.000354
2.300000	0.001626	-0.000354
2.310000	0.001945	-0.000354
2.320000	0.001626	-0.000670
2.330000	0.001945	0.000277
2.340000	0.002264	-3.854300E-5
2.350000	0.001308	-0.000354
2.360000	0.002264	-0.000354
2.370000	0.001626	-0.000354
2.380000	0.002582	-0.000354
2.390000	0.001945	-0.000670
2.400000	0.002264	-0.000354
2.410000	0.001626	-3.854300E-5
2.420000	0.001945	-3.854300E-5
2.430000	0.001945	-3.854300E-5
2.440000	0.001308	-0.000986
2.450000	0.001945	-0.000354
2.460000	0.002264	0.000277
2.470000	0.001945	-0.000354
2.480000	0.001945	-0.000354
2.490000	0.001626	-0.000670
2.500000	0.001945	-3.854300E-5
2.510000	0.002264	-3.854300E-5
2.520000	0.002264	-3.854300E-5
2.530000	0.001945	-0.000354
2.540000	0.001626	-0.000354
2.550000	0.002901	0.000593
2.560000	0.001945	-0.000354
2.570000	0.002264	-0.000670
2.580000	0.002264	-0.000354
2.590000	0.001945	-3.854300E-5
2.600000	0.001945	-3.854300E-5
2.610000	0.001626	-0.000354
2.620000	0.002264	-3.854300E-5
2.630000	0.001945	-0.000354
2.640000	0.002264	-3.854300E-5
2.650000	0.001945	-0.000354
2.660000	0.001945	-0.000354
2.670000	0.001945	-3.854300E-5
2.680000	0.002264	0.000277
2.690000	0.001945	0.000277
2.700000	0.001945	-3.854300E-5
2.710000	0.001626	-3.854300E-5
2.720000	0.001945	-0.000986
2.730000	0.002264	0.000277
2.740000	0.001945	-3.854300E-5
2.750000	0.002264	-0.000354
2.760000	0.001945	-3.854300E-5
2.770000	0.002264	-3.854300E-5
2.780000	0.001626	-0.000670
2.790000	0.002264	-0.000354
2.800000	0.002264	0.000593
2.810000	0.002264	-0.000354
2.820000	0.001945	-3.854300E-5
2.830000	0.002264	-3.854300E-5
2.840000	0.001945	-0.000354
2.850000	0.002264	-0.000354
2.860000	0.001945	-3.854300E-5
2.870000	0.002582	-3.854300E-5
2.880000	0.002582	0.000593
2.890000	0.001945	-0.000354
2.900000	0.001626	-3.854300E-5
2.910000	0.001945	-0.000354
2.920000	0.001308	-0.000354
2.930000	0.002264	-3.854300E-5
2.940000	0.001945	-3.854300E-5
2.950000	0.001626	-0.000354
2.960000	0.001945	-0.000354
2.970000	0.001945	-0.000354
2.980000	0.002582	0.000277
2.990000	0.001945	-0.000354
3.000000	0.001945	-0.000354
3.010000	0.002264	0.000277
3.020000	0.001945	-3.854300E-5
3.030000	0.001945	-0.000354
3.040000	0.002264	-0.000670
3.050000	0.001945	-3.854300E-5
3.060000	0.001945	-0.000670
3.070000	0.001945	-0.000354
3.080000	0.001945	-0.000354
3.090000	0.001626	-0.000670
3.100000	0.001626	-0.000354
3.110000	0.001945	-3.854300E-5
3.120000	0.001626	0.000277
3.130000	0.001308	-0.000354
3.140000	0.001945	-0.000670
3.150000	0.001945	-3.854300E-5
3.160000	0.002264	-0.000354
3.170000	0.001945	-0.000354
3.180000	0.002264	-3.854300E-5
3.190000	0.001945	-3.854300E-5
3.200000	0.002264	-3.854300E-5
3.210000	0.001626	-0.000670
3.220000	0.002264	-0.000670
3.230000	0.001308	-0.000354
3.240000	0.001945	-0.000986
3.250000	0.001626	-0.000986
3.260000	0.001945	-0.000670
3.270000	0.002264	-0.000354
3.280000	0.001945	-0.000354
3.290000	0.001945	0.000277
3.300000	0.001308	-0.000670
3.310000	0.002264	-3.854300E-5
3.320000	0.001945	-0.000354
3.330000	0.001945	-3.854300E-5
3.340000	0.002264	-3.854300E-5
3.350000	0.002582	0.000277
3.360000	0.001945	-0.000354
3.370000	0.001308	-0.000354
3.380000	0.002582	-3.854300E-5
3.390000	0.002264	-3.854300E-5
3.400000	0.001945	-3.854300E-5
3.410000	0.002264	-0.000354
3.420000	0.002264	-0.000354
3.430000	0.002582	0.000593
3.440000	0.003219	-0.000986
3.450000	0.004175	-0.000670
3.460000	0.003219	-0.000354
3.470000	0.003538	-0.000670
3.480000	0.004175	-0.000670
3.490000	0.004175	-0.001302
3.500000	0.006406	-0.001302
3.510000	0.006406	-0.000986
3.520000	0.004494	-0.001934
3.530000	0.006406	-0.001934
3.540000	0.007999	-0.001302
3.550000	0.008318	-0.001618
3.560000	0.008318	-0.002250
3.570000	0.009911	-0.001618
3.580000	0.008955	-0.001302
3.590000	0.012460	-0.001302
3.600000	0.013416	-0.002250
3.610000	0.012779	-0.002566
3.620000	0.013735	-0.001934
3.630000	0.015965	-0.001302
3.640000	0.016284	-0.002250
3.650000	0.022657	-0.001934
3.660000	0.022019	-0.002566
3.670000	0.022657	-0.001934
3.680000	0.024569	-0.002566
3.690000	0.024569	-0.003513
3.700000	0.027755	-0.002566
3.710000	0.029348	-0.002881
3.720000	0.034446	-0.003829
3.730000	0.025524	-0.004777
3.740000	0.031260	-0.005409
3.750000	0.036358	-0.005409
3.760000	0.039226	-0.006988
3.770000	0.039545	-0.006988
3.780000	0.035084	-0.008567
3.790000	0.043368	-0.009831
3.800000	0.043368	-0.010147
3.810000	0.048785	-0.011094
3.820000	0.047511	-0.012042
3.830000	0.051016	-0.012990
3.840000	0.053565	-0.012674
3.850000	0.057707	-0.014569
3.860000	0.052928	-0.014885
3.870000	0.063762	-0.015517
3.880000	0.062168	-0.016780
3.890000	0.062806	-0.018360
3.900000	0.059619	-0.019939
3.910000	0.065355	-0.019623
3.920000	0.060575	-0.020571
3.930000	0.066948	-0.021834
3.940000	0.070453	-0.023414
3.950000	0.071409	-0.024361
3.960000	0.077145	-0.025309
3.970000	0.079694	-0.026257
3.980000	0.074596	-0.027204
3.990000	0.078419	-0.027520
4.000000	0.081924	-0.027836
4.010000	0.085111	-0.030047
4.020000	0.084792	-0.031311
4.030000	0.086067	-0.031943
4.040000	0.090846	-0.033838
4.050000	0.087341	-0.035101
4.060000	0.094033	-0.036681
4.070000	0.092440	-0.037944
4.080000	0.094033	-0.039524
4.090000	0.097219	-0.040155
4.100000	0.096901	-0.040155
4.110000	0.098175	-0.042998
4.120000	0.099450	-0.043946
4.130000	0.100406	-0.045210
4.140000	0.103273	-0.047421
4.150000	0.105504	-0.047737
4.160000	0.105823	-0.050580
4.170000	0.107734	-0.050264
4.180000	0.111877	-0.052791
4.190000	0.109328	-0.054686
4.200000	0.110921	-0.055002
4.210000	0.111877	-0.055949
4.220000	0.114745	-0.056897
4.230000	0.113151	-0.059108
4.240000	0.112833	-0.059108
4.250000	0.113789	-0.060688
4.260000	0.115382	-0.061951
4.270000	0.124304	-0.062267
4.280000	0.116975	-0.063215
4.290000	0.116338	-0.064162
4.300000	0.119524	-0.064794
4.310000	0.118887	-0.066374
4.320000	0.120480	-0.066374
4.330000	0.123348	-0.066689
4.340000	0.120161	-0.068585
4.350000	0.122392	-0.068901
4.360000	0.120799	-0.069216
4.370000	0.123667	-0.069216
4.380000	0.123348	-0.070164
4.390000	0.120161	-0.070480
4.400000	0.126216	-0.071112
4.410000	0.124941	-0.071112
4.420000	0.122073	-0.072691
4.430000	0.125578	-0.073007
4.440000	0.126216	-0.073007
4.450000	0.130039	-0.073639
4.460000	0.129402	-0.074271
4.470000	0.127809	-0.074586
4.480000	0.132270	-0.074586
4.490000	0.132907	-0.074271
4.500000	0.128446	-0.076166
4.510000	0.132907	-0.075534
4.520000	0.128765	-0.075534
4.530000	0.127490	-0.076166
4.540000	0.131633	-0.076798
4.550000	0.131951	-0.077429
4.560000	0.132589	-0.076798
4.570000	0.128765	-0.076482
4.580000	0.128128	-0.077114
4.590000	0.133226	-0.077429
4.600000	0.127490	-0.077429
4.610000	0.134819	-0.077114
4.620000	0.134500	-0.077745
4.630000	0.133226	-0.077429
4.640000	0.131314	-0.078061
4.650000	0.129721	-0.077114
4.660000	0.138005	-0.078693
4.670000	0.132907	-0.079009
4.680000	0.132907	-0.078061
4.690000	0.132907	-0.078061
4.700000	0.133544	-0.078693
4.710000	0.138324	-0.079009
4.720000	0.134500	-0.078693
4.730000	0.133544	-0.078693
4.740000	0.130995	-0.079325
4.750000	0.139599	-0.078693
4.760000	0.131951	-0.079641
4.770000	0.134500	-0.078693
4.780000	0.134819	-0.079641
4.790000	0.134819	-0.079641
4.800000	0.131314	-0.079009
4.810000	0.135456	-0.079325
4.820000	0.135456	-0.079325
4.830000	0.127809	-0.079641
4.840000	0.136731	-0.079641
4.850000	0.135775	-0.079956
4.860000	0.133544	-0.079956
4.870000	0.135138	-0.079956
4.880000	0.135456	-0.079009
4.890000	0.135138	-0.079641
4.900000	0.135138	-0.079641
4.910000	0.135775	-0.080588
4.920000	0.131314	-0.079325
4.930000	0.134819	-0.079325
4.940000	0.131633	-0.080272
4.950000	0.135456	-0.079956
4.960000	0.138005	-0.080272
4.970000	0.135456	-0.079956
4.980000	0.138005	-0.080272
4.990000	0.137368	-0.080904
5.000000	0.137368	-0.079009
5.010000	0.135775	-0.079641
5.020000	0.137368	-0.080272
5.030000	0.136412	-0.080588
5.040000	0.136412	-0.079641
5.050000	0.132270	-0.080588
5.060000	0.134500	-0.080272
5.070000	0.130677	-0.080272
5.080000	0.134819	-0.079956
5.090000	0.134819	-0.079641
5.100000	0.137368	-0.080272
5.110000	0.137368	-0.080272
5.120000	0.133226	-0.079641
5.130000	0.131633	-0.080272
5.140000	0.133863	-0.080272
5.150000	0.130358	-0.081220
5.160000	0.130677	-0.080272
5.170000	0.132589	-0.080272
5.180000	0.130995	-0.080588
5.190000	0.129721	-0.080272
5.200000	0.131633	-0.079956
5.210000	0.134500	-0.079956
5.220000	0.132907	-0.080272
5.230000	0.130039	-0.080588
5.240000	0.130995	-0.080588
5.250000	0.131951	-0.080588
5.260000	0.130358	-0.080272
5.270000	0.132270	-0.080272
5.280000	0.130358	-0.079956
5.290000	0.133863	-0.080588
5.300000	0.133226	-0.080272
5.310000	0.130677	-0.080904
5.320000	0.128446	-0.079956
5.330000	0.126216	-0.080588
5.340000	0.126216	-0.080272
5.350000	0.132589	-0.080588
5.360000	0.131633	-0.080904
5.370000	0.125578	-0.080588
5.380000	0.129721	-0.079956
5.390000	0.128128	-0.080904
5.400000	0.127809	-0.080588
5.410000	0.128765	-0.081220
5.420000	0.129402	-0.080588
5.430000	0.129083	-0.080588
5.440000	0.128765	-0.081220
5.450000	0.128128	-0.080588
5.460000	0.129402	-0.080904
5.470000	0.126853	-0.080904
5.480000	0.124941	-0.080904
5.490000	0.130358	-0.081220
5.500000	0.126216	-0.080588
5.510000	0.129083	-0.080904
5.520000	0.126216	-0.081220
5.530000	0.125260	-0.080588
5.540000	0.121436	-0.080904
5.550000	0.127809	-0.080904
5.560000	0.123667	-0.081220
5.570000	0.118887	-0.080272
5.580000	0.125260	-0.081536
5.590000	0.124304	-0.080904
5.600000	0.123667	-0.080272
5.610000	0.123029	-0.081220
5.620000	0.127490	-0.081220
5.630000	0.124622	-0.081220
5.640000	0.123348	-0.080904
5.650000	0.120161	-0.080904
5.660000	0.122711	-0.081852
5.670000	0.122711	-0.080904
5.680000	0.121755	-0.081220
5.690000	0.123667	-0.081220
5.700000	0.119206	-0.081536
5.710000	0.124941	-0.081536
5.720000	0.117931	-0.081220
5.730000	0.120161	-0.081220
5.740000	0.122073	-0.081536
5.750000	0.118887	-0.081220
5.760000	0.120161	-0.080904
5.770000	0.120799	-0.081220
5.780000	0.119206	-0.081536
5.790000	0.120799	-0.081220
5.800000	0.118887	-0.081536
5.810000	0.118568	-0.080904
5.820000	0.121755	-0.081852
5.830000	0.115382	-0.081852
5.840000	0.117931	-0.081536
5.850000	0.120799	-0.081220
5.860000	0.115382	-0.082168
5.870000	0.119524	-0.081852
5.880000	0.120799	-0.081220
5.890000	0.117931	-0.081536
5.900000	0.120161	-0.081536
5.910000	0.120480	-0.082168
5.920000	0.115700	-0.081220
5.930000	0.116975	-0.081536
5.940000	0.114107	-0.082168
5.950000	0.115382	-0.081852
5.960000	0.117931	-0.082168
5.970000	0.117612	-0.081220
5.980000	0.120799	-0.081852
5.990000	0.117294	-0.081852
6.000000	0.116656	-0.081852
6.010000	0.115382	-0.081852
6.020000	0.116019	-0.082168
6.030000	0.118568	-0.082168
6.040000	0.117294	-0.082168
6.050000	0.115063	-0.080904
6.060000	0.115063	-0.081852
6.070000	0.117931	-0.082168
6.080000	0.116975	-0.082168
6.090000	0.116338	-0.081536
6.100000	0.116338	-0.081536
6.110000	0.113470	-0.081852
6.120000	0.117931	-0.082799
6.130000	0.114107	-0.081852
6.140000	0.111239	-0.082168
6.150000	0.115063	-0.082168
6.160000	0.117294	-0.082168
6.170000	0.114107	-0.082799
6.180000	0.112195	-0.082483
6.190000	0.113470	-0.082168
6.200000	0.112514	-0.081852
6.210000	0.113789	-0.082168
6.220000	0.113789	-0.082168
6.230000	0.114107	-0.082168
6.240000	0.115063	-0.081852
6.250000	0.112833	-0.082168
6.260000	0.115063	-0.082483
6.270000	0.112514	-0.081852
6.280000	0.110921	-0.082168
6.290000	0.113470	-0.082799
6.300000	0.113789	-0.082168
6.310000	0.113470	-0.082799
6.320000	0.109965	-0.082168
6.330000	0.112514	-0.081852
6.340000	0.114107	-0.082168
6.350000	0.112195	-0.082799
6.360000	0.112514	-0.081852
6.370000	0.113789	-0.082168
6.380000	0.110602	-0.082168
6.390000	0.110284	-0.082799
6.400000	0.110921	-0.082483
6.410000	0.113470	-0.082799
6.420000	0.109646	-0.083431
6.430000	0.112514	-0.082799
6.440000	0.110602	-0.082168
6.450000	0.110284	-0.081220
6.460000	0.111239	-0.082799
6.470000	0.107097	-0.083115
6.480000	0.110284	-0.082483
6.490000	0.114745	-0.081852
6.500000	0.111239	-0.082168
6.510000	0.110284	-0.083115
6.520000	0.111558	-0.081536
6.530000	0.114107	-0.082483
6.540000	0.107416	-0.082168
6.550000	0.113151	-0.082483
6.560000	0.108372	-0.083747
6.570000	0.112833	-0.082483
6.580000	0.110284	-0.083115
6.590000	0.108690	-0.083431
6.600000	0.110602	-0.082483
6.610000	0.110602	-0.082799
6.620000	0.110284	-0.082168
6.630000	0.110921	-0.082799
6.640000	0.112833	-0.083431
6.650000	0.111558	-0.082799
6.660000	0.108053	-0.083115
6.670000	0.108690	-0.083115
6.680000	0.112195	-0.083115
6.690000	0.112514	-0.082799
6.700000	0.109646	-0.082799
6.710000	0.109965	-0.083431
6.720000	0.108372	-0.083115
6.730000	0.107097	-0.082799
6.740000	0.108372	-0.083431
6.750000	0.111558	-0.082483
6.760000	0.104867	-0.082799
6.770000	0.110602	-0.083747
6.780000	0.110284	-0.083115
6.790000	0.110602	-0.083115
6.800000	0.106141	-0.083431
6.810000	0.109328	-0.083115
6.820000	0.109009	-0.083431
6.830000	0.106460	-0.083747
