LabVIEW Measurement	
Writer_Version	2
Reader_Version	2
Separator	Tab
Decimal_Separator	.
Multi_Headings	Yes
X_Columns	One
Time_Pref	Absolute
Operator	rsh2268
Date	2024/10/15
Time	17:03:03.3588028999998193713
***End_of_Header***	
	
Channels	3			
Samples	1700	1700	1700	
Date	2024/10/15	2024/10/15	2024/10/15	
Time	17:03:03.3588028999998193713	17:03:03.3588028999998193713	17:03:03.3588028999998193713	
Y_Unit_Label	Volts	Volts	Volts	
X_Dimension	Time	Time	Time	
X0	0.0000000000000000E+0	0.0000000000000000E+0	0.0000000000000000E+0	
Delta_X	0.010000	0.010000	0.010000	
***End_of_Header***				
X_Value	cDAQ2Mod1/ai0	cDAQ2Mod1/ai1	cDAQ2Mod1/ai2	Comment
0.000000	0.003538	-0.000670	-0.000609
0.010000	0.002901	0.000277	-0.000928
0.020000	0.002582	-0.000670	-0.000928
0.030000	0.002582	0.000277	2.840100E-5
0.040000	0.001945	-0.000354	-0.000609
0.050000	0.002901	-3.854300E-5	-0.000609
0.060000	0.001945	0.000277	-0.000928
0.070000	0.002582	-3.854300E-5	-0.000290
0.080000	0.002582	0.000277	-0.000609
0.090000	0.002582	0.000277	-0.000290
0.100000	0.002264	-3.854300E-5	-0.000609
0.110000	0.002264	-0.000354	-0.000928
0.120000	0.002582	-0.000670	-0.000928
0.130000	0.002264	0.000277	-0.000609
0.140000	0.002582	-0.000670	-0.000609
0.150000	0.003219	-0.000354	0.000347
0.160000	0.002264	-0.000354	-0.000928
0.170000	0.002582	0.000277	-0.000290
0.180000	0.002582	0.000277	2.840100E-5
0.190000	0.002264	-0.000354	-0.000928
0.200000	0.002264	0.000277	-0.000290
0.210000	0.002901	-3.854300E-5	-0.000928
0.220000	0.002582	0.000277	-0.000290
0.230000	0.002582	0.000593	-0.000290
0.240000	0.002582	-3.854300E-5	-0.000609
0.250000	0.002901	0.000909	-0.000609
0.260000	0.002264	-0.000354	-0.000928
0.270000	0.002582	-3.854300E-5	-0.000609
0.280000	0.002582	-3.854300E-5	-0.000290
0.290000	0.002264	-0.000354	-0.000609
0.300000	0.002582	-3.854300E-5	-0.000609
0.310000	0.002264	-3.854300E-5	-0.000609
0.320000	0.002901	0.000277	-0.000290
0.330000	0.002582	-0.000670	-0.000928
0.340000	0.001945	0.000909	2.840100E-5
0.350000	0.002582	-3.854300E-5	-0.000928
0.360000	0.002264	-0.000354	-0.000609
0.370000	0.002582	-0.000354	-0.000609
0.380000	0.001945	-0.000354	-0.000609
0.390000	0.002582	-0.000354	-0.001566
0.400000	0.002582	-3.854300E-5	-0.000290
0.410000	0.002264	-3.854300E-5	-0.000928
0.420000	0.001626	-3.854300E-5	-0.000609
0.430000	0.002264	-0.000354	-0.000928
0.440000	0.002582	-3.854300E-5	-0.000928
0.450000	0.002264	-0.000354	-0.000290
0.460000	0.002264	-0.000354	-0.000290
0.470000	0.002582	-0.000354	-0.000609
0.480000	0.002901	0.000593	-0.000609
0.490000	0.002264	-0.000354	-0.000290
0.500000	0.002582	0.000909	-0.000290
0.510000	0.001626	-3.854300E-5	-0.000928
0.520000	0.002582	0.000277	-0.000609
0.530000	0.002582	0.000277	0.000347
0.540000	0.001945	-0.000354	-0.000609
0.550000	0.002582	0.000593	-0.000290
0.560000	0.002582	-3.854300E-5	-0.000928
0.570000	0.002264	-3.854300E-5	-0.000290
0.580000	0.001945	-3.854300E-5	-0.000928
0.590000	0.001945	0.000593	-0.000609
0.600000	0.002582	-0.000354	-0.000290
0.610000	0.002582	-0.000670	-0.001247
0.620000	0.002582	-3.854300E-5	2.840100E-5
0.630000	0.002901	0.000277	-0.000609
0.640000	0.002901	-3.854300E-5	-0.000928
0.650000	0.002582	0.000277	-0.000928
0.660000	0.002582	-3.854300E-5	-0.000928
0.670000	0.002264	-3.854300E-5	-0.000928
0.680000	0.003219	-3.854300E-5	-0.000290
0.690000	0.002264	-0.000354	-0.000928
0.700000	0.001945	0.000277	-0.000928
0.710000	0.002582	-3.854300E-5	-0.000928
0.720000	0.002582	-0.000670	-0.001247
0.730000	0.003219	-3.854300E-5	-0.000609
0.740000	0.002264	-3.854300E-5	-0.000609
0.750000	0.001945	0.000593	-0.000609
0.760000	0.002582	-3.854300E-5	-0.000928
0.770000	0.002264	-0.000354	-0.000609
0.780000	0.002264	-0.000354	-0.000290
0.790000	0.002264	-0.000354	-0.000609
0.800000	0.002901	-0.000354	-0.000609
0.810000	0.002264	0.000277	-0.000290
0.820000	0.002582	-3.854300E-5	2.840100E-5
0.830000	0.001945	0.000277	-0.000290
0.840000	0.002582	-0.000354	-0.000609
0.850000	0.002582	-0.000354	-0.000609
0.860000	0.002582	-3.854300E-5	-0.000928
0.870000	0.002582	-3.854300E-5	-0.000928
0.880000	0.001945	-0.000354	-0.000928
0.890000	0.002582	-3.854300E-5	-0.000928
0.900000	0.002901	0.000277	-0.000290
0.910000	0.002582	-3.854300E-5	-0.001247
0.920000	0.002582	0.000909	-0.000290
0.930000	0.002264	0.000277	-0.000609
0.940000	0.002582	-3.854300E-5	-0.000290
0.950000	0.003219	-0.000354	-0.000290
0.960000	0.002582	0.000277	-0.000290
0.970000	0.002582	0.000277	-0.000290
0.980000	0.003219	-3.854300E-5	-0.000290
0.990000	0.002582	0.000593	-0.000928
1.000000	0.002582	-3.854300E-5	-0.000928
1.010000	0.001945	-0.000354	-0.001566
1.020000	0.002582	0.000909	-0.000290
1.030000	0.002901	-0.000354	-0.000290
1.040000	0.002264	-3.854300E-5	-0.000609
1.050000	0.002264	-3.854300E-5	-0.000609
1.060000	0.002582	-0.000354	-0.000928
1.070000	0.002264	-0.000354	-0.000609
1.080000	0.002582	-3.854300E-5	-0.000609
1.090000	0.002264	-0.000354	-0.000928
1.100000	0.002582	-3.854300E-5	-0.000609
1.110000	0.002264	-3.854300E-5	-0.000290
1.120000	0.002264	-0.000354	-0.000609
1.130000	0.002901	-0.000354	-0.000609
1.140000	0.003219	-3.854300E-5	2.840100E-5
1.150000	0.003538	0.000593	2.840100E-5
1.160000	0.002264	-3.854300E-5	-0.000609
1.170000	0.002582	-0.000670	-0.000609
1.180000	0.003219	0.000593	-0.000290
1.190000	0.002582	-0.000354	-0.000609
1.200000	0.002582	-0.000354	-0.000290
1.210000	0.002264	-0.000354	-0.000928
1.220000	0.002582	-0.000354	-0.000928
1.230000	0.001945	-0.000354	-0.000928
1.240000	0.001945	-3.854300E-5	-0.000928
1.250000	0.002901	0.000277	-0.000609
1.260000	0.002582	-3.854300E-5	-0.000928
1.270000	0.002582	0.000277	-0.000290
1.280000	0.001945	0.000593	-0.000609
1.290000	0.002582	-0.000354	-0.000609
1.300000	0.002901	-3.854300E-5	2.840100E-5
1.310000	0.001945	-3.854300E-5	-0.000928
1.320000	0.002901	-3.854300E-5	-0.000609
1.330000	0.002264	-0.000354	-0.000609
1.340000	0.002264	-3.854300E-5	-0.000609
1.350000	0.002582	-0.000354	-0.000290
1.360000	0.001945	-3.854300E-5	-0.000928
1.370000	0.002582	-0.000354	-0.000609
1.380000	0.002901	-3.854300E-5	-0.000928
1.390000	0.002582	-3.854300E-5	-0.000928
1.400000	0.002582	0.000593	-0.000290
1.410000	0.002901	0.000277	-0.000609
1.420000	0.002901	-0.000354	-0.000290
1.430000	0.003219	-3.854300E-5	-0.000609
1.440000	0.003219	0.000277	-0.000290
1.450000	0.002582	0.000593	-0.000290
1.460000	0.002582	-0.000670	-0.000928
1.470000	0.003219	0.000277	2.840100E-5
1.480000	0.002264	0.000277	-0.000290
1.490000	0.002901	0.000277	-0.000609
1.500000	0.002901	-3.854300E-5	-0.000609
1.510000	0.002901	-0.000354	-0.000609
1.520000	0.003219	0.000593	-0.000290
1.530000	0.002901	-0.000354	-0.000609
1.540000	0.002264	-3.854300E-5	-0.000928
1.550000	0.003219	-3.854300E-5	-0.000290
1.560000	0.002901	-0.000354	-0.000609
1.570000	0.002901	0.000277	-0.000290
1.580000	0.003538	0.000593	0.000347
1.590000	0.002901	0.000277	-0.000609
1.600000	0.002582	0.000277	2.840100E-5
1.610000	0.002901	0.000277	-0.000609
1.620000	0.002582	0.000277	-0.000290
1.630000	0.002901	0.000277	-0.000290
1.640000	0.002582	-0.000354	-0.000609
1.650000	0.002901	0.000593	2.840100E-5
1.660000	0.002582	0.000277	-0.000928
1.670000	0.003219	0.000593	0.000347
1.680000	0.002582	-3.854300E-5	-0.000928
1.690000	0.002264	-3.854300E-5	-0.000609
1.700000	0.002582	0.000277	-0.000290
1.710000	0.002264	-0.000354	-0.001247
1.720000	0.002901	0.000277	2.840100E-5
1.730000	0.002582	-3.854300E-5	-0.000928
1.740000	0.002264	-0.000354	-0.000609
1.750000	0.002582	0.000277	-0.000290
1.760000	0.002582	0.000593	2.840100E-5
1.770000	0.002901	0.000593	-0.000290
1.780000	0.002901	0.000593	2.840100E-5
1.790000	0.002582	-0.000354	-0.000290
1.800000	0.002901	0.000593	-0.001566
1.810000	0.002901	-3.854300E-5	2.840100E-5
1.820000	0.002582	-3.854300E-5	-0.000928
1.830000	0.002264	-0.000354	-0.000290
1.840000	0.002582	0.000593	-0.000290
1.850000	0.002901	-3.854300E-5	-0.000609
1.860000	0.002264	-3.854300E-5	-0.000609
1.870000	0.002582	0.000277	2.840100E-5
1.880000	0.002901	-0.000354	-0.000609
1.890000	0.002582	-0.000354	-0.000928
1.900000	0.002264	0.000277	-0.000928
1.910000	0.002901	-3.854300E-5	-0.000290
1.920000	0.003219	0.000593	-0.000928
1.930000	0.002582	0.000909	2.840100E-5
1.940000	0.003219	-3.854300E-5	-0.000609
1.950000	0.002264	0.000277	-0.000290
1.960000	0.002582	-0.000354	-0.000609
1.970000	0.002582	0.000593	2.840100E-5
1.980000	0.002582	-3.854300E-5	-0.000609
1.990000	0.002582	0.000277	-0.000609
2.000000	0.002582	0.000593	2.840100E-5
2.010000	0.001945	-0.000354	-0.001566
2.020000	0.002901	0.000277	-0.000290
2.030000	0.002901	0.001225	0.000347
2.040000	0.002582	-3.854300E-5	-0.000928
2.050000	0.002901	0.000593	-0.000290
2.060000	0.003219	0.000277	-0.000290
2.070000	0.002901	-3.854300E-5	-0.000609
2.080000	0.001945	-3.854300E-5	-0.001247
2.090000	0.002901	0.000277	2.840100E-5
2.100000	0.002582	-3.854300E-5	-0.000609
2.110000	0.002582	-0.000354	-0.000928
2.120000	0.002901	0.000909	-0.000609
2.130000	0.002582	-0.000670	-0.001247
2.140000	0.001945	-0.000354	-0.000609
2.150000	0.002582	-3.854300E-5	-0.000290
2.160000	0.002901	0.000593	2.840100E-5
2.170000	0.001945	-0.000986	-0.001566
2.180000	0.002582	-3.854300E-5	-0.000928
2.190000	0.002582	-3.854300E-5	-0.000928
2.200000	0.002582	-3.854300E-5	-0.000609
2.210000	0.001945	0.000277	-0.000609
2.220000	0.002582	-0.000354	-0.000609
2.230000	0.002901	0.000277	2.840100E-5
2.240000	0.002264	-3.854300E-5	-0.000928
2.250000	0.002582	-0.000354	-0.000290
2.260000	0.002264	-3.854300E-5	-0.000609
2.270000	0.002901	-3.854300E-5	-0.000609
2.280000	0.002582	-0.000354	-0.000928
2.290000	0.002264	-0.000354	-0.000928
2.300000	0.002582	0.000593	2.840100E-5
2.310000	0.002264	-0.000354	-0.000609
2.320000	0.001945	-0.000354	-0.000609
2.330000	0.002264	-0.000354	2.840100E-5
2.340000	0.002264	-3.854300E-5	2.840100E-5
2.350000	0.001945	-0.000670	-0.000928
2.360000	0.002582	-3.854300E-5	-0.000928
2.370000	0.002901	0.000593	-0.000609
2.380000	0.002901	-3.854300E-5	-0.000928
2.390000	0.002264	0.000277	-0.000290
2.400000	0.002264	0.000277	2.840100E-5
2.410000	0.002901	-0.000354	-0.000609
2.420000	0.002582	0.000277	-0.000290
2.430000	0.002582	-3.854300E-5	-0.000290
2.440000	0.002582	-0.000354	-0.001247
2.450000	0.002264	-0.000354	-0.000290
2.460000	0.002901	-3.854300E-5	-0.000928
2.470000	0.002264	-0.000354	-0.000928
2.480000	0.001945	0.000593	-0.000290
2.490000	0.002264	0.000277	-0.000290
2.500000	0.002582	-3.854300E-5	-0.000290
2.510000	0.002901	-3.854300E-5	-0.000290
2.520000	0.002901	0.000593	2.840100E-5
2.530000	0.003219	-3.854300E-5	-0.000290
2.540000	0.003219	0.000593	-0.000290
2.550000	0.002901	-0.000354	-0.000290
2.560000	0.002582	-0.000354	-0.001247
2.570000	0.002582	-3.854300E-5	-0.000928
2.580000	0.002582	0.000909	-0.000290
2.590000	0.002264	-0.000354	-0.000609
2.600000	0.002264	-3.854300E-5	-0.000928
2.610000	0.002582	0.000277	-0.000609
2.620000	0.002582	-3.854300E-5	-0.000928
2.630000	0.001945	-0.000354	-0.001247
2.640000	0.002264	0.000593	-0.000609
2.650000	0.002582	-0.000354	-0.000290
2.660000	0.002264	-3.854300E-5	-0.000928
2.670000	0.002582	-0.000354	-0.001247
2.680000	0.002901	0.000593	-0.000290
2.690000	0.002582	-3.854300E-5	-0.000290
2.700000	0.002582	0.000277	-0.000609
2.710000	0.002901	-3.854300E-5	-0.000290
2.720000	0.002264	-3.854300E-5	-0.000609
2.730000	0.001945	-0.000354	-0.000928
2.740000	0.002582	-0.000354	-0.000609
2.750000	0.002582	-0.000354	-0.000609
2.760000	0.001945	-0.000354	-0.000928
2.770000	0.002582	-0.000354	2.840100E-5
2.780000	0.002264	-3.854300E-5	-0.000928
2.790000	0.002582	-3.854300E-5	-0.000609
2.800000	0.002582	-0.000354	-0.000609
2.810000	0.002582	-0.000354	-0.000609
2.820000	0.003219	0.000277	-0.000609
2.830000	0.002582	-3.854300E-5	-0.000609
2.840000	0.002582	-3.854300E-5	-0.000609
2.850000	0.002901	0.000277	2.840100E-5
2.860000	0.002901	-3.854300E-5	-0.000290
2.870000	0.002901	-3.854300E-5	2.840100E-5
2.880000	0.002582	0.000593	-0.000609
2.890000	0.002901	0.000593	-0.000290
2.900000	0.002582	-3.854300E-5	-0.000290
2.910000	0.001945	-0.000354	-0.000609
2.920000	0.002582	-0.000354	-0.000609
2.930000	0.002901	0.000909	-0.000290
2.940000	0.002582	-0.000354	-0.000290
2.950000	0.002582	-0.000354	-0.000290
2.960000	0.002582	-3.854300E-5	-0.000928
2.970000	0.002582	-3.854300E-5	-0.000609
2.980000	0.002582	-0.000354	-0.000609
2.990000	0.002264	-3.854300E-5	-0.000609
3.000000	0.002582	0.000277	-0.000609
3.010000	0.002264	-0.000354	-0.001566
3.020000	0.002901	-3.854300E-5	-0.000609
3.030000	0.002264	-3.854300E-5	2.840100E-5
3.040000	0.002901	-0.000354	-0.000928
3.050000	0.002582	0.000277	-0.000290
3.060000	0.002582	-0.000354	-0.000928
3.070000	0.002582	-3.854300E-5	-0.000609
3.080000	0.001945	-3.854300E-5	-0.000290
3.090000	0.002901	0.000593	-0.000609
3.100000	0.002582	-3.854300E-5	-0.000609
3.110000	0.002901	-3.854300E-5	-0.000609
3.120000	0.002901	0.000277	-0.000290
3.130000	0.002901	-0.000354	-0.000609
3.140000	0.002582	-3.854300E-5	-0.000928
3.150000	0.002264	-3.854300E-5	-0.000290
3.160000	0.002582	-0.000354	-0.000609
3.170000	0.003219	-3.854300E-5	-0.000290
3.180000	0.002264	-3.854300E-5	-0.000609
3.190000	0.002582	-3.854300E-5	2.840100E-5
3.200000	0.002264	-0.000354	-0.000609
3.210000	0.002901	-3.854300E-5	-0.000290
3.220000	0.002582	0.000593	-0.000609
3.230000	0.001945	0.000277	2.840100E-5
3.240000	0.002582	0.000277	-0.000290
3.250000	0.002901	-3.854300E-5	-0.000928
3.260000	0.002582	-3.854300E-5	-0.000928
3.270000	0.002582	-0.000354	-0.000928
3.280000	0.002582	0.000277	-0.000928
3.290000	0.002901	0.000277	-0.000609
3.300000	0.001945	0.000277	-0.000609
3.310000	0.002582	-3.854300E-5	-0.000609
3.320000	0.002582	-3.854300E-5	-0.000609
3.330000	0.002582	-0.000354	-0.000928
3.340000	0.003219	-3.854300E-5	-0.000290
3.350000	0.002582	0.000593	-0.000290
3.360000	0.001626	-0.000670	-0.000609
3.370000	0.003538	0.000277	0.000347
3.380000	0.002901	-3.854300E-5	2.840100E-5
3.390000	0.002901	0.000593	-0.000290
3.400000	0.002901	0.000277	-0.000609
3.410000	0.002582	-3.854300E-5	2.840100E-5
3.420000	0.002582	0.000277	-0.000609
3.430000	0.002582	-3.854300E-5	2.840100E-5
3.440000	0.002582	-3.854300E-5	-0.000609
3.450000	0.002582	0.000277	-0.000290
3.460000	0.002264	-0.000354	-0.001566
3.470000	0.002582	-3.854300E-5	-0.000290
3.480000	0.002901	0.000277	-0.000290
3.490000	0.002582	-3.854300E-5	-0.000609
3.500000	0.002901	0.000277	2.840100E-5
3.510000	0.002582	-3.854300E-5	-0.000290
3.520000	0.002582	-0.000354	-0.000609
3.530000	0.002582	0.000277	2.840100E-5
3.540000	0.002582	0.000277	-0.000290
3.550000	0.002264	-0.000354	-0.000928
3.560000	0.002901	-3.854300E-5	-0.000609
3.570000	0.002582	0.000277	-0.000609
3.580000	0.002582	-0.000670	-0.001247
3.590000	0.002582	0.000277	-0.000928
3.600000	0.003538	0.000277	-0.000609
3.610000	0.002901	-3.854300E-5	-0.000609
3.620000	0.003219	0.000593	2.840100E-5
3.630000	0.002582	-0.000354	-0.000609
3.640000	0.002901	-3.854300E-5	-0.000290
3.650000	0.003219	-3.854300E-5	-0.000609
3.660000	0.002901	0.000277	-0.000290
3.670000	0.002582	-3.854300E-5	-0.000290
3.680000	0.002582	0.000593	-0.000609
3.690000	0.002582	0.000277	-0.000609
3.700000	0.002264	0.000277	-0.000290
3.710000	0.002582	0.000909	-0.001247
3.720000	0.002264	0.000593	-0.000290
3.730000	0.002264	-0.000354	-0.000928
3.740000	0.001945	-0.000354	-0.000290
3.750000	0.002582	0.000593	-0.000290
3.760000	0.002264	-0.000354	-0.000609
3.770000	0.002264	0.000277	-0.000928
3.780000	0.002582	-3.854300E-5	-0.000609
3.790000	0.002901	0.000277	-0.000290
3.800000	0.001945	-3.854300E-5	2.840100E-5
3.810000	0.002582	0.000277	-0.000609
3.820000	0.002264	-3.854300E-5	2.840100E-5
3.830000	0.002901	-3.854300E-5	2.840100E-5
3.840000	0.001945	0.000593	-0.000290
3.850000	0.002901	0.000277	-0.000609
3.860000	0.002264	-3.854300E-5	-0.000609
3.870000	0.002901	-3.854300E-5	0.000347
3.880000	0.002582	-0.000354	-0.000928
3.890000	0.002582	-0.000354	-0.000609
3.900000	0.001945	0.000593	-0.000290
3.910000	0.002264	-0.000354	-0.000609
3.920000	0.003538	-3.854300E-5	-0.000609
3.930000	0.002901	0.000593	0.000666
3.940000	0.002582	0.000593	2.840100E-5
3.950000	0.003219	0.000593	-0.000609
3.960000	0.002582	0.000593	-0.000290
3.970000	0.003219	0.000277	-0.000290
3.980000	0.002582	-3.854300E-5	-0.000928
3.990000	0.002582	0.000593	-0.000609
4.000000	0.003219	-3.854300E-5	2.840100E-5
4.010000	0.002582	-3.854300E-5	-0.001247
4.020000	0.002582	0.000593	-0.000290
4.030000	0.002582	0.000277	-0.000609
4.040000	0.002582	-0.000354	-0.000290
4.050000	0.002264	-3.854300E-5	-0.000290
4.060000	0.001945	0.000593	-0.000609
4.070000	0.002582	0.000277	2.840100E-5
4.080000	0.002582	-3.854300E-5	-0.000290
4.090000	0.002901	0.000909	-0.000609
4.100000	0.002582	0.000593	2.840100E-5
4.110000	0.002582	-3.854300E-5	-0.000928
4.120000	0.002582	0.000909	0.000347
4.130000	0.002264	-3.854300E-5	-0.000290
4.140000	0.001945	-0.000354	-0.000609
4.150000	0.002264	0.000277	-0.000290
4.160000	0.002582	-3.854300E-5	-0.000609
4.170000	0.002901	0.000277	-0.000609
4.180000	0.002901	-3.854300E-5	-0.000290
4.190000	0.002582	0.000277	0.000666
4.200000	0.002901	0.000909	-0.000609
4.210000	0.002582	0.000277	-0.000609
4.220000	0.003219	0.000593	0.000666
4.230000	0.002582	-0.000354	-0.000609
4.240000	0.002582	0.000277	-0.000290
4.250000	0.002582	0.000593	-0.000290
4.260000	0.002264	0.000277	-0.000290
4.270000	0.003219	0.000277	-0.000609
4.280000	0.002901	0.000277	2.840100E-5
4.290000	0.003219	-0.000354	-0.000290
4.300000	0.002582	0.000277	-0.000290
4.310000	0.003219	0.000593	-0.000609
4.320000	0.002901	0.000593	0.000666
4.330000	0.002264	-3.854300E-5	2.840100E-5
4.340000	0.003857	0.000277	2.840100E-5
4.350000	0.002901	-3.854300E-5	2.840100E-5
4.360000	0.002264	-0.000670	-0.001566
4.370000	0.003538	-3.854300E-5	2.840100E-5
4.380000	0.003538	0.000593	-0.000928
4.390000	0.003538	-3.854300E-5	-0.000928
4.400000	0.004813	0.000277	-0.000609
4.410000	0.004494	-0.000670	-0.001247
4.420000	0.005131	-3.854300E-5	-0.000609
4.430000	0.005131	0.000593	-0.000928
4.440000	0.003857	-3.854300E-5	-0.001247
4.450000	0.004813	-0.000354	-0.001566
4.460000	0.006406	-3.854300E-5	-0.001566
4.470000	0.007680	-0.000354	-0.001566
4.480000	0.007999	-0.001302	-0.001884
4.490000	0.009592	-0.000354	-0.001884
4.500000	0.008318	-0.000986	-0.001566
4.510000	0.010548	-0.000670	-0.001884
4.520000	0.007680	-0.000670	-0.002522
4.530000	0.009592	-0.001302	-0.001566
4.540000	0.008636	-0.001934	-0.002522
4.550000	0.014372	-0.000670	-0.001566
4.560000	0.014053	-0.000986	-0.002203
4.570000	0.016602	-0.001302	-0.002203
4.580000	0.015647	-0.001618	-0.002841
4.590000	0.018833	-0.001302	-0.002203
4.600000	0.019789	-0.001934	-0.002841
4.610000	0.022019	-0.001618	-0.004116
4.620000	0.024887	-0.001618	-0.003797
4.630000	0.022338	-0.002881	-0.003797
4.640000	0.024250	-0.002881	-0.004116
4.650000	0.025206	-0.003829	-0.004435
4.660000	0.031579	-0.002881	-0.003797
4.670000	0.031579	-0.003513	-0.005391
4.680000	0.029667	-0.003829	-0.005391
4.690000	0.033491	-0.005093	-0.006667
4.700000	0.036677	-0.005093	-0.007623
4.710000	0.037314	-0.005093	-0.008898
4.720000	0.040819	-0.006356	-0.010811
4.730000	0.042094	-0.007936	-0.012405
4.740000	0.043368	-0.008251	-0.013043
4.750000	0.044962	-0.009515	-0.013999
4.760000	0.044006	-0.011094	-0.016231
4.770000	0.047192	-0.010463	-0.016550
4.780000	0.047830	-0.013306	-0.019100
4.790000	0.058026	-0.013306	-0.020694
4.800000	0.059938	-0.013937	-0.022607
4.810000	0.059938	-0.014885	-0.024520
4.820000	0.065036	-0.015833	-0.025795
4.830000	0.061213	-0.016148	-0.027389
4.840000	0.063124	-0.017096	-0.028346
4.850000	0.060894	-0.018360	-0.029940
4.860000	0.064399	-0.018991	-0.032171
4.870000	0.071728	-0.020255	-0.034084
4.880000	0.066948	-0.021203	-0.035678
4.890000	0.070135	-0.023414	-0.038229
4.900000	0.073958	-0.023098	-0.038229
4.910000	0.075870	-0.025309	-0.040460
4.920000	0.082243	-0.025625	-0.041735
4.930000	0.078419	-0.026257	-0.042692
4.940000	0.079057	-0.027836	-0.045561
4.950000	0.084473	-0.029100	-0.046199
4.960000	0.086704	-0.030995	-0.047155
4.970000	0.088616	-0.031943	-0.047793
4.980000	0.087023	-0.034154	-0.049387
