LabVIEW Measurement	
Writer_Version	2
Reader_Version	2
Separator	Tab
Decimal_Separator	.
Multi_Headings	Yes
X_Columns	One
Time_Pref	Absolute
Operator	rsh2268
Date	2024/10/15
Time	17:29:27.8239087999995785422
***End_of_Header***	
	
Channels	3			
Samples	1500	1500	1500	
Date	2024/10/15	2024/10/15	2024/10/15	
Time	17:29:27.8239087999995785422	17:29:27.8239087999995785422	17:29:27.8239087999995785422	
Y_Unit_Label	Volts	Volts	Volts	
X_Dimension	Time	Time	Time	
X0	0.0000000000000000E+0	0.0000000000000000E+0	0.0000000000000000E+0	
Delta_X	0.010000	0.010000	0.010000	
***End_of_Header***				
X_Value	cDAQ2Mod1/ai0	cDAQ2Mod1/ai1	cDAQ2Mod1/ai2	Comment
0.000000	0.003219	-0.000986	-0.000928
0.010000	0.002582	0.000277	-0.000928
0.020000	0.001945	-3.854300E-5	-0.000928
0.030000	0.002901	-0.000354	-0.000290
0.040000	0.003219	0.000593	-0.000290
0.050000	0.002901	-3.854300E-5	-0.000290
0.060000	0.001945	-0.000354	-0.000928
0.070000	0.002582	-3.854300E-5	-0.000609
0.080000	0.002264	0.000277	-0.000290
0.090000	0.002582	-0.000354	-0.000609
0.100000	0.002582	-3.854300E-5	-0.000928
0.110000	0.002264	-3.854300E-5	-0.000609
0.120000	0.002582	-0.000354	-0.000928
0.130000	0.002582	-0.000354	2.840100E-5
0.140000	0.002582	-3.854300E-5	-0.000609
0.150000	0.002901	-0.000670	-0.000928
0.160000	0.002582	-0.000354	-0.000928
0.170000	0.002582	-0.000354	-0.000609
0.180000	0.002901	0.000593	-0.000290
0.190000	0.003219	0.000593	-0.000290
0.200000	0.002901	-3.854300E-5	0.000347
0.210000	0.002582	-0.000354	-0.000609
0.220000	0.002582	0.000593	-0.000290
0.230000	0.002582	0.000277	-0.000609
0.240000	0.002582	0.000277	-0.000290
0.250000	0.001945	-0.000354	-0.000609
0.260000	0.001945	-3.854300E-5	-0.000928
0.270000	0.002264	-3.854300E-5	-0.001247
0.280000	0.002582	0.000277	-0.000609
0.290000	0.001626	-0.000670	-0.000609
0.300000	0.002582	-3.854300E-5	-0.000928
0.310000	0.002582	-0.000354	-0.000290
0.320000	0.002264	-0.000354	-0.000928
0.330000	0.002582	-3.854300E-5	2.840100E-5
0.340000	0.002582	0.000277	-0.000290
0.350000	0.002582	-0.000670	-0.000609
0.360000	0.002264	-3.854300E-5	-0.000928
0.370000	0.002582	-0.000354	-0.000609
0.380000	0.002901	0.000593	0.000347
0.390000	0.002582	-3.854300E-5	-0.000928
0.400000	0.002582	-0.000354	-0.001247
0.410000	0.002582	0.000277	-0.000609
0.420000	0.001626	-0.000354	-0.000928
0.430000	0.002901	-3.854300E-5	-0.000609
0.440000	0.002264	-0.000670	-0.000609
0.450000	0.002901	-0.000354	-0.000290
0.460000	0.002582	0.000593	-0.000609
0.470000	0.001945	-0.000354	-0.000928
0.480000	0.002582	-3.854300E-5	0.000347
0.490000	0.002264	-0.000354	-0.000928
0.500000	0.002582	-3.854300E-5	-0.000290
0.510000	0.002264	-3.854300E-5	-0.000609
0.520000	0.002901	-3.854300E-5	0.000347
0.530000	0.002582	-3.854300E-5	-0.000609
0.540000	0.002264	-0.000354	-0.000928
0.550000	0.002582	-3.854300E-5	-0.000928
0.560000	0.002264	0.000277	-0.000928
0.570000	0.002582	0.000277	-0.000928
0.580000	0.002582	0.000277	2.840100E-5
0.590000	0.002264	0.000277	-0.001247
0.600000	0.002582	0.000593	-0.000928
0.610000	0.001945	-0.000354	-0.001247
0.620000	0.002264	-0.000354	-0.000609
0.630000	0.002582	0.000593	-0.000609
0.640000	0.002264	-0.000354	-0.000928
0.650000	0.002901	-3.854300E-5	-0.000928
0.660000	0.002582	-3.854300E-5	-0.000609
0.670000	0.002582	-0.000354	-0.000609
0.680000	0.002582	0.000277	-0.000290
0.690000	0.002264	-0.000354	-0.000928
0.700000	0.002264	-0.000354	-0.000609
0.710000	0.001945	-0.000354	-0.000928
0.720000	0.002901	-3.854300E-5	-0.000609
0.730000	0.002264	0.000277	0.000347
0.740000	0.002582	-0.000354	-0.000609
0.750000	0.002582	-0.000354	-0.000928
0.760000	0.001945	0.000277	-0.000609
0.770000	0.002264	-3.854300E-5	-0.000928
0.780000	0.002264	0.000593	-0.000290
0.790000	0.002264	-3.854300E-5	-0.000290
0.800000	0.002582	-3.854300E-5	-0.000609
0.810000	0.002264	-0.000354	-0.000290
0.820000	0.002582	0.000909	2.840100E-5
0.830000	0.002264	-3.854300E-5	-0.000290
0.840000	0.002582	-3.854300E-5	-0.000290
0.850000	0.002582	-0.000354	-0.000609
0.860000	0.002582	-0.000354	-0.000609
0.870000	0.002264	-3.854300E-5	-0.001247
0.880000	0.002582	-0.000354	-0.000609
0.890000	0.002582	-0.000354	-0.000928
0.900000	0.002901	0.000593	-0.000290
0.910000	0.002264	-0.000670	-0.000928
0.920000	0.003219	-3.854300E-5	-0.000928
0.930000	0.002582	-0.000354	-0.000928
0.940000	0.002901	-3.854300E-5	-0.000609
0.950000	0.002901	-0.000354	2.840100E-5
0.960000	0.003538	-3.854300E-5	-0.000290
0.970000	0.002582	-0.000354	-0.000609
0.980000	0.002582	-0.000670	-0.000609
0.990000	0.002264	-3.854300E-5	-0.000609
1.000000	0.002582	-0.000354	-0.000609
1.010000	0.002264	-3.854300E-5	-0.000928
1.020000	0.001945	-0.000354	-0.000609
1.030000	0.001945	-3.854300E-5	-0.000290
1.040000	0.002582	-3.854300E-5	-0.000290
1.050000	0.002264	0.000277	-0.000609
1.060000	0.001945	-0.000354	-0.000928
1.070000	0.002582	-3.854300E-5	-0.000609
1.080000	0.002582	-0.000670	-0.000928
1.090000	0.002264	-0.000354	-0.000290
1.100000	0.002582	-3.854300E-5	-0.000609
1.110000	0.002264	-3.854300E-5	-0.000609
1.120000	0.003219	-3.854300E-5	2.840100E-5
1.130000	0.002582	-0.000354	-0.000290
1.140000	0.002582	-3.854300E-5	-0.000290
1.150000	0.002264	-3.854300E-5	-0.000609
1.160000	0.002582	-0.000354	-0.000928
1.170000	0.002901	-3.854300E-5	-0.000609
1.180000	0.001945	-3.854300E-5	-0.001247
1.190000	0.002582	-3.854300E-5	-0.000609
1.200000	0.002582	0.000277	-0.000290
1.210000	0.002264	-0.000354	-0.000928
1.220000	0.002901	0.000593	-0.000609
1.230000	0.002901	0.000277	-0.000928
1.240000	0.001945	-3.854300E-5	-0.000290
1.250000	0.002582	0.000593	-0.000290
1.260000	0.002264	-0.000354	-0.000609
1.270000	0.002264	-0.000354	-0.001884
1.280000	0.002901	-0.000354	2.840100E-5
1.290000	0.002264	-0.000354	-0.000290
1.300000	0.002264	0.000593	2.840100E-5
1.310000	0.001945	-0.000354	-0.000609
1.320000	0.002901	0.000277	-0.000290
1.330000	0.002901	0.000593	2.840100E-5
1.340000	0.002582	-0.000354	2.840100E-5
1.350000	0.002264	-3.854300E-5	-0.000928
1.360000	0.002582	-3.854300E-5	-0.000290
1.370000	0.001626	-3.854300E-5	-0.000290
1.380000	0.003219	0.000277	2.840100E-5
1.390000	0.002582	-3.854300E-5	-0.000609
1.400000	0.003219	-0.000354	-0.000928
1.410000	0.002582	0.000593	-0.000609
1.420000	0.001945	0.000277	-0.000290
1.430000	0.002901	-0.000354	-0.000290
1.440000	0.003219	-0.000354	2.840100E-5
1.450000	0.002582	-0.000354	-0.000609
1.460000	0.002901	0.000593	-0.000609
1.470000	0.002901	-0.000354	-0.000290
1.480000	0.002901	-3.854300E-5	-0.000290
1.490000	0.002901	-0.000354	-0.000609
1.500000	0.002582	-3.854300E-5	0.000347
1.510000	0.003219	-0.000670	-0.000609
1.520000	0.002264	0.000277	-0.000609
1.530000	0.002582	-3.854300E-5	-0.000290
1.540000	0.002901	-3.854300E-5	-0.000928
1.550000	0.002264	-0.000354	-0.000290
1.560000	0.002582	-0.000670	-0.000290
1.570000	0.002582	0.000593	2.840100E-5
1.580000	0.002582	0.000593	-0.000290
1.590000	0.002901	0.000593	-0.000290
1.600000	0.002901	0.000277	-0.000290
1.610000	0.002901	0.000593	2.840100E-5
1.620000	0.002582	-3.854300E-5	-0.000290
1.630000	0.003219	-3.854300E-5	-0.000290
1.640000	0.002264	0.000277	-0.000290
1.650000	0.002901	0.000277	-0.000290
1.660000	0.002264	0.000593	2.840100E-5
1.670000	0.001945	-3.854300E-5	-0.000290
1.680000	0.002582	0.000593	-0.000609
1.690000	0.002264	-0.000354	-0.000609
1.700000	0.003219	0.000277	-0.000290
1.710000	0.002582	0.000277	0.000347
1.720000	0.002582	0.000277	-0.001247
1.730000	0.002582	0.000277	-0.000290
1.740000	0.002582	-0.000354	-0.000609
1.750000	0.002264	-3.854300E-5	-0.000609
1.760000	0.003219	-3.854300E-5	-0.000290
1.770000	0.001945	-3.854300E-5	-0.000928
1.780000	0.003219	0.000277	2.840100E-5
1.790000	0.002582	0.000277	-0.001247
1.800000	0.002901	0.000277	-0.000290
1.810000	0.002582	0.000909	0.000347
1.820000	0.002901	-3.854300E-5	-0.000928
1.830000	0.002901	0.000277	-0.000609
1.840000	0.002582	0.000277	-0.000609
1.850000	0.002582	-3.854300E-5	-0.000609
1.860000	0.002582	-3.854300E-5	-0.000290
1.870000	0.002582	-0.000670	-0.000928
1.880000	0.002582	-3.854300E-5	-0.000290
1.890000	0.002901	0.000277	-0.000290
1.900000	0.002582	0.000277	-0.000609
1.910000	0.002582	-3.854300E-5	-0.000609
1.920000	0.002582	-3.854300E-5	-0.000609
1.930000	0.002901	-3.854300E-5	-0.000290
1.940000	0.002901	0.001541	0.000666
1.950000	0.003219	-3.854300E-5	0.000347
1.960000	0.002264	-0.000670	-0.000290
1.970000	0.002901	-0.000354	-0.000928
1.980000	0.002582	-3.854300E-5	-0.000928
1.990000	0.002901	-3.854300E-5	-0.000290
2.000000	0.002901	0.000593	0.000347
2.010000	0.002901	0.000277	2.840100E-5
2.020000	0.002264	-3.854300E-5	-0.000928
2.030000	0.002901	-3.854300E-5	2.840100E-5
2.040000	0.002582	-0.000354	-0.000928
2.050000	0.002582	0.000277	2.840100E-5
2.060000	0.002582	0.000909	2.840100E-5
2.070000	0.002582	-0.000354	-0.001247
2.080000	0.002901	0.000277	0.000347
2.090000	0.003219	0.000593	2.840100E-5
2.100000	0.002582	-3.854300E-5	-0.000290
2.110000	0.002901	0.000277	-0.000290
2.120000	0.003538	0.000909	2.840100E-5
2.130000	0.002901	-3.854300E-5	-0.000290
2.140000	0.002264	0.000277	-0.000290
2.150000	0.002901	-3.854300E-5	2.840100E-5
2.160000	0.002264	-3.854300E-5	-0.000928
2.170000	0.002582	0.000277	-0.000290
2.180000	0.002264	0.000277	-0.000290
2.190000	0.001945	-0.000354	-0.000609
2.200000	0.002582	0.000593	2.840100E-5
2.210000	0.003219	0.000593	-0.000290
2.220000	0.002582	-3.854300E-5	-0.000290
2.230000	0.003219	0.000909	2.840100E-5
2.240000	0.002582	-0.000670	-0.000609
2.250000	0.002582	-3.854300E-5	2.840100E-5
2.260000	0.003219	0.000593	-0.000290
2.270000	0.002901	0.000277	0.000347
2.280000	0.003219	-0.000670	-0.000290
2.290000	0.002264	0.000593	-0.000290
2.300000	0.002582	-0.000354	-0.000290
2.310000	0.002582	-3.854300E-5	-0.000290
2.320000	0.002901	0.000909	-0.000609
2.330000	0.002582	-0.000354	-0.000928
2.340000	0.002264	-0.000354	-0.000609
2.350000	0.002582	0.000277	2.840100E-5
2.360000	0.002264	-3.854300E-5	-0.000928
2.370000	0.002582	0.001225	0.000347
2.380000	0.002582	0.000593	-0.000290
2.390000	0.002582	0.000909	2.840100E-5
2.400000	0.003538	0.000593	-0.000290
2.410000	0.002901	0.000909	-0.000290
2.420000	0.002582	0.000277	2.840100E-5
2.430000	0.002582	-3.854300E-5	-0.000609
2.440000	0.002264	0.000277	-0.000609
2.450000	0.002264	-3.854300E-5	-0.000290
2.460000	0.002582	0.000909	0.000347
2.470000	0.002582	-0.000354	-0.001247
2.480000	0.002901	0.000593	2.840100E-5
2.490000	0.002582	0.000277	-0.000928
2.500000	0.002582	-3.854300E-5	-0.000609
2.510000	0.002264	-3.854300E-5	-0.000290
2.520000	0.001945	-0.000354	-0.000609
2.530000	0.002901	0.000593	-0.000609
2.540000	0.002582	0.000277	2.840100E-5
2.550000	0.002582	0.000277	2.840100E-5
2.560000	0.002264	-3.854300E-5	-0.000609
2.570000	0.002901	0.000277	2.840100E-5
2.580000	0.002582	0.000277	0.000347
2.590000	0.002582	-3.854300E-5	-0.000609
2.600000	0.002901	0.000593	0.000347
2.610000	0.002264	-3.854300E-5	-0.000928
2.620000	0.002901	-3.854300E-5	2.840100E-5
2.630000	0.002582	0.000277	-0.001247
2.640000	0.001945	0.000277	-0.000928
2.650000	0.002582	0.000593	2.840100E-5
2.660000	0.001945	-0.000354	-0.001247
2.670000	0.002901	-0.000354	-0.000928
2.680000	0.002582	-3.854300E-5	2.840100E-5
2.690000	0.002582	-3.854300E-5	-0.000609
2.700000	0.001945	-0.000354	-0.000290
2.710000	0.002582	-3.854300E-5	-0.000290
2.720000	0.002264	0.000593	-0.000928
2.730000	0.001945	-3.854300E-5	-0.000290
2.740000	0.002901	0.000909	-0.000290
2.750000	0.003219	0.000277	-0.000609
2.760000	0.002901	-3.854300E-5	-0.000928
2.770000	0.003219	0.000593	0.000347
2.780000	0.002582	-3.854300E-5	0.000347
2.790000	0.003219	0.000593	-0.000609
2.800000	0.002582	-3.854300E-5	-0.000609
2.810000	0.001945	-0.000354	-0.001247
2.820000	0.002264	-3.854300E-5	2.840100E-5
2.830000	0.001945	-3.854300E-5	-0.000609
2.840000	0.002264	-0.000354	-0.000609
2.850000	0.002582	-3.854300E-5	-0.000609
2.860000	0.001945	-0.000670	-0.000928
2.870000	0.002901	0.000277	-0.000609
2.880000	0.002582	-0.000354	-0.000609
2.890000	0.002264	-0.000354	-0.000928
2.900000	0.002582	-3.854300E-5	-0.000290
2.910000	0.002582	-3.854300E-5	-0.000609
2.920000	0.002264	-3.854300E-5	2.840100E-5
2.930000	0.002901	-3.854300E-5	2.840100E-5
2.940000	0.002582	-0.000354	-0.000609
2.950000	0.002264	-0.000354	-0.000290
2.960000	0.002582	-3.854300E-5	-0.000928
2.970000	0.002582	-3.854300E-5	-0.000609
2.980000	0.002582	-0.000354	-0.000609
2.990000	0.002582	0.000277	-0.000609
3.000000	0.001945	-0.000354	-0.000290
3.010000	0.002582	0.000593	-0.000290
3.020000	0.002901	-3.854300E-5	-0.000290
3.030000	0.002901	0.000277	-0.000609
3.040000	0.003219	-3.854300E-5	-0.000928
3.050000	0.002901	0.000909	2.840100E-5
3.060000	0.001945	-3.854300E-5	-0.000928
3.070000	0.002582	-3.854300E-5	-0.000609
3.080000	0.001626	-3.854300E-5	-0.001247
3.090000	0.001626	-3.854300E-5	-0.000609
3.100000	0.002901	-3.854300E-5	-0.000609
3.110000	0.002901	0.000277	-0.000290
3.120000	0.002264	-0.000354	-0.000609
3.130000	0.002582	-3.854300E-5	-0.000609
3.140000	0.002582	-3.854300E-5	-0.001566
3.150000	0.002582	0.000909	-0.000609
3.160000	0.001945	-0.000354	-0.000290
3.170000	0.002264	0.000593	-0.000290
3.180000	0.002582	-0.000354	-0.000609
3.190000	0.001945	-0.000354	-0.000928
3.200000	0.002901	0.000277	-0.000609
3.210000	0.001945	-0.000354	-0.000928
3.220000	0.002582	0.000593	-0.000928
3.230000	0.002901	0.000277	-0.000609
3.240000	0.001945	-3.854300E-5	-0.000290
3.250000	0.002582	-3.854300E-5	0.000347
3.260000	0.002582	-3.854300E-5	-0.000609
3.270000	0.001945	0.000277	-0.000609
3.280000	0.002582	-0.000354	2.840100E-5
3.290000	0.002582	0.000593	-0.000290
3.300000	0.002264	-0.000354	-0.000609
3.310000	0.001945	-0.000354	-0.001566
3.320000	0.002582	-0.000354	-0.000928
3.330000	0.002264	-0.000354	2.840100E-5
3.340000	0.002264	-3.854300E-5	-0.000609
3.350000	0.002901	0.000277	-0.000290
3.360000	0.002582	-3.854300E-5	-0.000928
3.370000	0.002901	0.000277	-0.000609
3.380000	0.002264	-3.854300E-5	-0.000290
3.390000	0.002264	-0.000354	-0.000290
3.400000	0.002582	-3.854300E-5	-0.000290
3.410000	0.002582	-0.000354	-0.000928
3.420000	0.002901	-0.000354	-0.000290
3.430000	0.002264	-3.854300E-5	-0.000290
3.440000	0.001945	-0.000354	-0.000928
3.450000	0.001945	-0.000354	-0.000928
3.460000	0.002264	-0.000354	-0.000928
3.470000	0.002901	-3.854300E-5	-0.000609
3.480000	0.002264	0.000277	-0.000290
3.490000	0.002582	-3.854300E-5	-0.000609
3.500000	0.002901	-3.854300E-5	-0.000609
3.510000	0.001945	-0.000354	-0.000609
3.520000	0.002264	0.000277	-0.000928
3.530000	0.003219	0.001225	2.840100E-5
3.540000	0.002264	-0.000354	-0.001247
3.550000	0.002582	-3.854300E-5	-0.000928
3.560000	0.002582	-0.000354	-0.000928
3.570000	0.002264	-3.854300E-5	-0.000928
3.580000	0.003219	0.000593	2.840100E-5
3.590000	0.002582	-0.000670	-0.002203
3.600000	0.002582	-3.854300E-5	-0.000609
3.610000	0.002582	-0.000354	-0.001566
3.620000	0.002901	-0.000354	-0.000928
3.630000	0.002582	-3.854300E-5	-0.000290
3.640000	0.002264	-3.854300E-5	-0.000928
3.650000	0.002582	-3.854300E-5	-0.000928
3.660000	0.002901	-3.854300E-5	-0.000609
3.670000	0.002582	0.000593	-0.000290
3.680000	0.002582	0.000277	-0.000290
3.690000	0.002582	-0.000354	-0.000609
3.700000	0.002582	-0.000354	-0.000290
3.710000	0.001945	-3.854300E-5	-0.000609
3.720000	0.002901	0.000277	-0.000290
3.730000	0.002264	-3.854300E-5	-0.000609
3.740000	0.001308	-0.000670	-0.000928
3.750000	0.002264	-0.000354	-0.001566
3.760000	0.002582	-0.000354	-0.000609
3.770000	0.002582	-3.854300E-5	-0.000290
3.780000	0.002264	-0.000354	-0.000290
3.790000	0.002582	-0.000354	-0.000290
3.800000	0.002582	-3.854300E-5	-0.000609
3.810000	0.002582	-3.854300E-5	-0.000609
3.820000	0.002582	0.000593	2.840100E-5
3.830000	0.001945	0.000593	-0.000609
3.840000	0.002582	-3.854300E-5	-0.000609
3.850000	0.002901	0.000593	-0.000609
3.860000	0.002264	0.000277	0.000347
3.870000	0.002582	0.000277	-0.000609
3.880000	0.003219	-3.854300E-5	2.840100E-5
3.890000	0.001945	-0.000354	-0.000928
3.900000	0.003538	0.000593	-0.000290
3.910000	0.002901	0.000593	2.840100E-5
3.920000	0.002582	-3.854300E-5	-0.000609
3.930000	0.002582	0.000277	-0.000290
3.940000	0.002264	-3.854300E-5	-0.000928
3.950000	0.002901	0.000593	2.840100E-5
3.960000	0.002264	-3.854300E-5	-0.000609
3.970000	0.002582	-0.000670	-0.000609
3.980000	0.002264	0.000277	-0.000609
3.990000	0.002582	-3.854300E-5	-0.000928
4.000000	0.002901	-3.854300E-5	-0.001566
4.010000	0.002901	-3.854300E-5	2.840100E-5
4.020000	0.003219	-3.854300E-5	-0.000290
4.030000	0.001945	0.000593	-0.000290
4.040000	0.002901	-0.000670	-0.000609
4.050000	0.002582	0.000277	-0.000290
4.060000	0.002264	-3.854300E-5	2.840100E-5
4.070000	0.002901	-3.854300E-5	-0.000290
4.080000	0.003538	-0.000354	-0.000928
4.090000	0.002901	0.000277	-0.000928
4.100000	0.002901	-3.854300E-5	-0.000609
4.110000	0.003219	0.000593	0.000666
4.120000	0.002582	0.000909	-0.000609
4.130000	0.003538	-0.000354	2.840100E-5
4.140000	0.003219	0.000593	-0.000609
4.150000	0.003219	0.000593	-0.000290
4.160000	0.003219	0.000593	0.000666
4.170000	0.003538	-0.000354	-0.000609
4.180000	0.003538	0.000909	2.840100E-5
4.190000	0.002582	-0.000354	-0.001566
4.200000	0.003219	0.000277	2.840100E-5
4.210000	0.003538	-3.854300E-5	-0.000290
4.220000	0.003538	-0.000354	-0.000290
4.230000	0.003219	-0.000354	-0.000928
4.240000	0.003857	-3.854300E-5	-0.000928
4.250000	0.004494	-0.000670	-0.001566
4.260000	0.004175	-0.000354	-0.001247
4.270000	0.004494	-0.000670	-0.000928
4.280000	0.006406	-0.000670	-0.001247
4.290000	0.006725	-0.001618	-0.001247
4.300000	0.008318	-0.000670	-0.001247
4.310000	0.006406	-0.000986	-0.002203
4.320000	0.006725	-0.001618	-0.002203
4.330000	0.006406	-0.000986	-0.002841
4.340000	0.005450	-0.001302	-0.002203
4.350000	0.006725	-0.002250	-0.002203
4.360000	0.007043	-0.001934	-0.001884
4.370000	0.009911	-0.001934	-0.003160
4.380000	0.009592	-0.002250	-0.002841
4.390000	0.011186	-0.001934	-0.002522
4.400000	0.013735	-0.001618	-0.001247
4.410000	0.016284	-0.001934	-0.001884
4.420000	0.014053	-0.002250	-0.002841
4.430000	0.019152	-0.003197	-0.003160
4.440000	0.019152	-0.003197	-0.003478
4.450000	0.019470	-0.002881	-0.003478
4.460000	0.016602	-0.003829	-0.004435
4.470000	0.020745	-0.003829	-0.004754
4.480000	0.021701	-0.004777	-0.004435
4.490000	0.027436	-0.004145	-0.004754
4.500000	0.029030	-0.004777	-0.004754
4.510000	0.027118	-0.006040	-0.006029
4.520000	0.028711	-0.006356	-0.004754
4.530000	0.028074	-0.006356	-0.006029
4.540000	0.036358	-0.006988	-0.006348
4.550000	0.032535	-0.007304	-0.006667
4.560000	0.038907	-0.008567	-0.007623
4.570000	0.037633	-0.008567	-0.010173
4.580000	0.034128	-0.010147	-0.011130
4.590000	0.038270	-0.010463	-0.011130
4.600000	0.044006	-0.010463	-0.011130
4.610000	0.047192	-0.012042	-0.015274
4.620000	0.044324	-0.013306	-0.016231
4.630000	0.044643	-0.013621	-0.016550
4.640000	0.045599	-0.014885	-0.019100
4.650000	0.051016	-0.015517	-0.020057
4.660000	0.053884	-0.017096	-0.020694
4.670000	0.054840	-0.018360	-0.022607
4.680000	0.059619	-0.018360	-0.023563
4.690000	0.055477	-0.018991	-0.024201
4.700000	0.057389	-0.020887	-0.026433
4.710000	0.058345	-0.021834	-0.028346
4.720000	0.058982	-0.023414	-0.029940
4.730000	0.066311	-0.024677	-0.030258
4.740000	0.065355	-0.025941	-0.031852
4.750000	0.063124	-0.027204	-0.034084
4.760000	0.066311	-0.027520	-0.034722
4.770000	0.070135	-0.029415	-0.035040
4.780000	0.070772	-0.030047	-0.035678
4.790000	0.070135	-0.032574	-0.035359
4.800000	0.067585	-0.033206	-0.034722
4.810000	0.072684	-0.035733	-0.033765
4.820000	0.071728	-0.036049	-0.031852
4.830000	0.074914	-0.037628	-0.035997
4.840000	0.075870	-0.039208	-0.039185
4.850000	0.078419	-0.041103	-0.042692
4.860000	0.078419	-0.043314	-0.047474
4.870000	0.080650	-0.043630	-0.049706
4.880000	0.081606	-0.045210	-0.051300
4.890000	0.081924	-0.046789	-0.053850
4.900000	0.084155	-0.048052	-0.055444
4.910000	0.087660	-0.049632	-0.057038
4.920000	0.087023	-0.051211	-0.057995
4.930000	0.088934	-0.052791	-0.059270
4.940000	0.086067	-0.053738	-0.059589
4.950000	0.091165	-0.055002	-0.059589
4.960000	0.088297	-0.055318	-0.060226
4.970000	0.092440	-0.055949	-0.059908
4.980000	0.087660	-0.058161	-0.060545
